Timestamp,Seq,AF3,AF4,Fp1,Fp2,AF7,AF8,Event,EventDate,EventDuration
0,0,-0.0749973669645032,-0.0255844996076226,0.0564264200838113,0.0588898281919751,0.0655373040482168,0.0280464995558857,,,
0.00200104713439941,0,-0.0749823912957181,-0.0255864665611346,0.0563621364667578,0.0590055431730203,0.0655423778942082,0.0279903072703251,,,
0.00400400161743164,0,-0.074967214461233,-0.0255714908923496,0.0563319392599987,0.0591943036549453,0.0655420202662969,0.0279530022088292,,,
0.00600409507751465,0,-0.0749590560745068,-0.0255559340782087,0.0563474737223951,0.0592110674632868,0.0655528832141022,0.0279452908569921,,,
0.00800704956054688,0,-0.0749610900832522,-0.0255512178601286,0.0563074193963312,0.0591540481631813,0.0655683729730097,0.0279158983130334,,,
0.0100071430206299,0,-0.0749718859758241,-0.0255539000694633,0.0562308870233163,0.0590868588193487,0.0655450154000539,0.0278633270100745,,,
0.0120100975036621,0,-0.0749710813130237,-0.0255560011334421,0.0561964429851106,0.0591093223225263,0.0655246529608551,0.0278233620909884,,,
0.014009952545166,0,-0.0749676838478665,-0.0255543918078413,0.056219532337133,0.0592011432887487,0.0655275810393788,0.0278055924541464,,,
0.016010046005249,0,-0.0749629229262975,-0.0255413830925683,0.0562723718610253,0.0592983286736403,0.0655466247256547,0.0277971434947423,,,
0.0180130004882813,0,-0.0749700084292899,-0.0255373821303108,0.0561891116129293,0.0593192499064505,0.0655410814930298,0.0277454215580728,,,
0.0200140476226807,0,-0.0749673709234441,-0.0255319283046637,0.056069999166727,0.0593449320608297,0.0655339289348041,0.0276226881292687,,,
0.0220160484313965,0,-0.0749529764000149,-0.0255228087929259,0.0560351080936322,0.059367775543663,0.0655443448477202,0.0275385561631389,,,
0.0240170955657959,0,-0.0749577596733284,-0.0255267203482056,0.0559753618807032,0.0593631040290718,0.0655434060744531,0.0274902763951154,,,
0.0260169506072998,0,-0.0749555915541162,-0.0255223841097813,0.0559455893570887,0.0593589019011142,0.0655468482430992,0.0274615320517459,,,
0.0280201435089111,0,-0.0749590113710179,-0.0255350575488874,0.0558982707140768,0.0593539174621007,0.0655355159086604,0.027420985987304,,,
0.030019998550415,0,-0.0749697402083564,-0.0255515084328065,0.0558691463910516,0.0593413781334613,0.0655193779491637,0.0273600551319188,,,
0.0320229530334473,0,-0.0749536022488597,-0.0255343199413204,0.0559231705574001,0.059316724159327,0.0655317831673364,0.0273420172741434,,,
0.0340230464935303,0,-0.0749448850685221,-0.0255264521272721,0.0559590227555064,0.0592547651236969,0.0655438307575978,0.0273224147942561,,,
0.0360260009765625,0,-0.0749472990569233,-0.0255260274441275,0.0559977136251585,0.0591496448695236,0.0655421096732747,0.027268457683141,,,
0.0380270481109619,0,-0.074937419585874,-0.0255157679934225,0.0560014910699715,0.0590932737700073,0.0655546490019141,0.0272117513074578,,,
0.0400271415710449,0,-0.0749348491352617,-0.0255154550690001,0.0559549994415044,0.0591227780726883,0.0655581805775381,0.0271994131445185,,,
0.0420300960540771,0,-0.074927942446225,-0.025511275292787,0.0559169120689526,0.0591889615880205,0.065557241804271,0.027201894188153,,,
0.0440299510955811,0,-0.0749075129517928,-0.0254946679466567,0.0558786682341895,0.0591696049773222,0.0655623827054957,0.027226928141943,,,
0.0460331439971924,0,-0.0748978793499326,-0.0254862189872526,0.0558224759486289,0.0591103728545157,0.0655685070834764,0.0272664013226511,,,
0.0480329990386963,0,-0.0749023049953347,-0.0254888341413539,0.055812171794435,0.0590824778774354,0.0655691105805767,0.0272898035990958,,,
0.0500340461730957,0,-0.0748886257277281,-0.0254789546703046,0.0558485827861527,0.0590612213684584,0.0655654448944861,0.0272770407530118,,,
0.0520360469818115,0,-0.0748688891373741,-0.0254634649113971,0.0559402696419084,0.0590593214701797,0.0655676353654427,0.0272501516044321,,,
0.0540370941162109,0,-0.0748576238581686,-0.0254499644577461,0.0560773528906528,0.0590798627233342,0.0655741844265681,0.0272189038656835,,,
0.0560390949249268,0,-0.0748459785993074,-0.025448489242612,0.056240006535054,0.0591023485782562,0.0655841533045951,0.0271842586617778,,,
0.0580401420593262,0,-0.0748567074366459,-0.0254672200044656,0.0562677003464342,0.0591268460901792,0.065601230037359,0.0271646114784016,,,
0.0600399971008301,0,-0.0748536675994,-0.0254678235015659,0.056240542976921,0.0591515224160579,0.065599710118736,0.0271812188245319,,,
0.0620429515838623,0,-0.0748474091109525,-0.0254674211701657,0.0562554739422171,0.0591493766485902,0.0655754137725131,0.0272162887115823,,,
0.0640430450439453,0,-0.0748572438785129,-0.0254719138708012,0.0562809996343851,0.0591287906919468,0.0655666295369422,0.0272454577380964,,,
0.0660431385040283,0,-0.0748464256341965,-0.0254576087543498,0.0563343979518888,0.059033952240223,0.0655764419527581,0.0272754761308999,,,
0.0680460929870605,0,-0.0748298406398106,-0.0254414931465975,0.0564024143102663,0.0589496861636265,0.0655768666359027,0.0272649931627504,,,
0.07004714012146,0,-0.0748110875262126,-0.0254291996871471,0.0564453520113649,0.0589626278236661,0.0655822087028275,0.0272431108049286,,,
0.0720491409301758,0,-0.0747825667002877,-0.0254047915822019,0.0564781867239698,0.0589870135768668,0.0656162727613774,0.027213673557481,,,
0.0740499496459961,0,-0.0747667863687022,-0.0253872007593156,0.0565591670941314,0.059014662684758,0.0656447488838135,0.0271712722982493,,,
0.0760500431060791,0,-0.0747331916967859,-0.0253558412618448,0.0566509210051204,0.0590555216736223,0.0656742531864945,0.0271684336267035,,,
0.0780529975891113,0,-0.0747146621006324,-0.0253353000086904,0.0567044310813464,0.059073917159309,0.065689251207024,0.0271845492344557,,,
0.0800530910491943,0,-0.0746997758388252,-0.0253189608834935,0.0567097955000157,0.0590876858338935,0.0656946603291822,0.0272129806534029,,,
0.0820541381835938,0,-0.0746997087835918,-0.0253169492264926,0.0566548549121445,0.0590943913572301,0.0656841550092882,0.0272198426389507,,,
0.0840561389923096,0,-0.0746978088853131,-0.0253186926625601,0.0566928081742296,0.0590766217203881,0.0656760413260509,0.0272127124324694,,,
0.0860569477081299,0,-0.0746931820742109,-0.0253165245433479,0.0568441518359365,0.0590279619727089,0.0656575564333864,0.0272243800430751,,,
0.0880601406097412,0,-0.0746693998181104,-0.0252918705692137,0.0568047233587174,0.0589958425159267,0.0656609538985436,0.0272461953456635,,,
0.0900599956512451,0,-0.0746644600825858,-0.0252830416301539,0.0566847615462257,0.0589624713614549,0.0656532425467065,0.0272436919502845,,,
0.0920629501342773,0,-0.0746635660128076,-0.0252850979906437,0.0566308938420884,0.0589734684197269,0.0656568635293083,0.0272384839938264,,,
0.0940630435943604,0,-0.0746564581580708,-0.0252795771097633,0.0566042952661866,0.0590458880717621,0.0656815398551869,0.0272341701071465,,,
0.0960631370544434,0,-0.0746541335766475,-0.0252744138567941,0.0565595470737871,0.0591356526774946,0.0656831491807877,0.0272289845024329,,,
0.0980660915374756,0,-0.074635849849683,-0.0252637967781778,0.0565924711933698,0.0592038254980833,0.0656972084280501,0.0272499727904764,,,
0.100067138671875,0,-0.0746237799076772,-0.0252608239961653,0.0567580305645502,0.0592447291904365,0.0657025951984638,0.0272675189098738,,,
0.102069139480591,0,-0.0746096983086703,-0.0252460494930803,0.0569572963663693,0.0593049447899991,0.0656748119801059,0.0272797676658353,,,
0.104069948196411,0,-0.0745979189393424,-0.0252298221266058,0.0570199930095664,0.0593100856912238,0.0656643290119563,0.0272808181978247,,,
0.106070041656494,0,-0.0746009364248438,-0.0252232954172248,0.0570604049635416,0.0592842470746335,0.0656666982968686,0.0272871884449945,,,
0.108072996139526,0,-0.0746096759569259,-0.0252288833533386,0.0570113205327178,0.0592898797142362,0.065668486436425,0.0272607239795594,,,
0.110073089599609,0,-0.074613363994761,-0.0252307832516173,0.0569424771597954,0.0593483518777313,0.0656572882124529,0.0272327172437569,,,
0.112076044082642,0,-0.074623377576277,-0.0252342924754968,0.0569440417819073,0.059392027186397,0.0656369928284875,0.0272095831882457,,,
0.114076137542725,0,-0.0746320947566145,-0.0252336666266521,0.0569837384800599,0.0593582089970361,0.0656118694677197,0.0272233295110857,,,
0.116076946258545,0,-0.0746384203002954,-0.0252420038273339,0.057071223207858,0.059322267391952,0.0655877966389414,0.027269441159897,,,
0.118080139160156,0,-0.0746339052479154,-0.0252373546644872,0.0571743988602637,0.0592877339467685,0.0655793700312817,0.0272904741514294,,,
0.12007999420166,0,-0.0746281608495904,-0.0251960933442227,0.0571798303341663,0.059276468667563,0.0655707646096664,0.0273025664451798,,,
0.122082948684692,0,-0.0746271997245788,-0.0251924723616209,0.0572263443143778,0.0592348944228762,0.0655340630452708,0.0272873002037168,,,
0.124083042144775,0,-0.0746191530965749,-0.0252137065188535,0.0573945635431485,0.059228747693151,0.0655192438386969,0.0272596957993145,,,
0.126085996627808,0,-0.074606345547002,-0.0252147570508429,0.0575106138003604,0.0592634599522901,0.0655310679115138,0.0272670048197514,,,
0.128086090087891,0,-0.0746075972446915,-0.0252200767660232,0.0574911007274509,0.0593162547726935,0.0655337948243373,0.0272710504854978,,,
0.13008713722229,0,-0.0746032833580116,-0.025222960141058,0.0574039959793086,0.0593503188312434,0.0655369464203055,0.0272650155144948,,,
0.132090091705322,0,-0.0745823621252015,-0.0252196297311341,0.0572460362012429,0.0593712847675425,0.0655590522955718,0.0272762584419559,,,
0.134089946746826,0,-0.0745774894449102,-0.0252147570508429,0.0570452951842898,0.0593795996164798,0.0655604604554725,0.027280929956547,,,
0.136090040206909,0,-0.0745784282181773,-0.0252041399722266,0.0569030486825763,0.059398509192289,0.0655538666908582,0.0272868755205721,,,
0.138092994689941,0,-0.0745733320204415,-0.0251982838151793,0.0568382286236559,0.0594123002186179,0.0655469152983326,0.027288686011873,,,
0.140093088150024,0,-0.0745634301976478,-0.0251864150388736,0.0567342036049609,0.059399000930667,0.0655338395278263,0.0272763925524226,,,
0.142096042633057,0,-0.074565844186049,-0.0251935228936103,0.0565474100765479,0.0593671496948182,0.0655202049637085,0.0272437813572623,,,
0.14409613609314,0,-0.074576841244321,-0.0252113372339412,0.0565447949224466,0.0593732517210545,0.0655275363358899,0.0272162216563489,,,
0.14609694480896,0,-0.0745827644566017,-0.0252071127542392,0.0566649355488939,0.0593638863401278,0.065539963905807,0.0272222119238629,,,
0.148100137710571,0,-0.074593336831729,-0.0252029553297705,0.0567606010151626,0.0593048777347657,0.065533727769104,0.0272227707174743,,,
0.150099992752075,0,-0.0745948343986075,-0.0251930311552323,0.0566982172963878,0.0592604871702775,0.0655267987283228,0.0272513138951437,,,
0.152102947235107,0,-0.0746069713958468,-0.0251935228936103,0.0564752586454461,0.0592354979199765,0.0655119348182601,0.0272691729389635,,,
0.15410304069519,0,-0.074612380518005,-0.0252004072309026,0.0563102580678771,0.0592074464806851,0.0655051175362012,0.027248430520109,,,
0.156105995178223,0,-0.0745936944596403,-0.0252100184810184,0.0562237791685795,0.0592276524576726,0.065495975672719,0.0272083538423006,,,
0.158106088638306,0,-0.0745774000379324,-0.0252062633879499,0.0560803480244098,0.0592873092636239,0.0654752556056089,0.0271914782752369,,,
0.160109043121338,0,-0.074615085079084,-0.0251892760621638,0.0560003511310042,0.0593469213660862,0.0654561448640996,0.0272106113684906,,,
0.162109136581421,0,-0.0746427565387197,-0.0251859680039845,0.0560110799683428,0.0594433020881775,0.0654633197740698,0.0272638085202943,,,
0.164108991622925,0,-0.0746290325676242,-0.0251812294341599,0.0560761235447077,0.0595337372462436,0.0654826987365125,0.027307439125471,,,
0.166111946105957,0,-0.0746103912127484,-0.0251920029749874,0.056251048296815,0.0595895942556374,0.0654984567163535,0.027308959044094,,,
0.16811203956604,0,-0.0745956390614079,-0.0252083197484398,0.0564046494847118,0.0596091520320358,0.0655040446524673,0.0272942739479868,,,
0.170114994049072,0,-0.0745970919247975,-0.0252247482806144,0.0564426921537748,0.0595863532526914,0.0654907006610275,0.027279946479791,,,
0.172115087509155,0,-0.0746339275996599,-0.0252504751384825,0.0564463801916099,0.0596367787881826,0.0654687735997169,0.0272481399474311,,,
0.174118041992188,0,-0.0746750324577132,-0.0252906635750131,0.0565230019716027,0.0597249564200588,0.0654364753289789,0.0271997037171964,,,
0.176119089126587,0,-0.0746987700103247,-0.0253046334152977,0.0565877102718008,0.0597553994960069,0.0654183704159701,0.0271507981003282,,,
0.178118944168091,0,-0.0747030838970046,-0.0252966091390382,0.0565699629867033,0.0597469505366028,0.0654087368141099,0.0271238642482596,,,
0.180122137069702,0,-0.0746792792891597,-0.0252890989529012,0.0565299980676172,0.0597507279814157,0.0654119778170559,0.0271527874055847,,,
0.182121992111206,0,-0.0746463104660881,-0.0252665460427458,0.056578836629252,0.0597713362898035,0.0654285404596973,0.027196395659017,,,
0.184124946594238,0,-0.074633100585115,-0.0252404839087109,0.0567350753229946,0.0598104518426003,0.0654578212449338,0.0272139417784145,,,
0.186125040054321,0,-0.0746253892332779,-0.025228212801005,0.0568718009438277,0.0598375421568802,0.0654854256493361,0.0272265258105428,,,
0.188125133514404,0,-0.0746392249630958,-0.0252195850276452,0.0569590621541813,0.0598177161595483,0.0654720816578962,0.0272111925138465,,,
0.190128087997437,0,-0.0746206506634534,-0.0251648903089631,0.0571079471239981,0.0598660182793162,0.0654856938702695,0.0272434460810955,,,
0.19212794303894,0,-0.0744842156152982,-0.0250454872900828,0.0572352626604155,0.0600336340109866,0.0656236041335588,0.0274096760046096,,,
0.194131135940552,0,-0.0743915005792976,-0.0249944359057469,0.0573450320774355,0.0601353791517471,0.0656985495327174,0.0274976971742746,,,
0.196131944656372,0,-0.0743203102732075,-0.0249615788413976,0.0574442738228171,0.060176707527245,0.0657338205854679,0.0275003346801203,,,
0.198132038116455,0,-0.0742895319210925,-0.0249355390591072,0.0574434021047833,0.0601949912542094,0.0657514114083542,0.0274861413223912,,,
0.200134992599487,0,-0.0742982491014301,-0.0249238043932682,0.0574297451889211,0.0601295453464443,0.065749287992631,0.0274701374733612,,,
0.20213508605957,0,-0.0742832063774116,-0.0249042689686142,0.057411819089868,0.0600547787612413,0.0657550994461893,0.0274648401099253,,,
0.20413613319397,0,-0.0742598041009669,-0.0248910367358967,0.057429544023221,0.0600332763830753,0.0657751266092213,0.0275026816132881,,,
0.206138134002686,0,-0.074277774903509,-0.024889874445185,0.0573979163048168,0.0600401607203675,0.0657854978186486,0.0275333929101697,,,
0.208138942718506,0,-0.0742883025751475,-0.0248732670990547,0.0573425733855454,0.0600353103918207,0.0657978583333323,0.0275694686257206,,,
0.210142135620117,0,-0.0742680965981599,-0.0248368784590815,0.0573479378042147,0.060096934151284,0.0658177960893865,0.0276257279665146,,,
0.212141990661621,0,-0.0742505728305069,-0.024792867874249,0.0573961505170048,0.0602442097955,0.0658378232524184,0.0276806462026413,,,
0.214142084121704,0,-0.0742291151558298,-0.0247555851644975,0.0574658879597054,0.0603066829212526,0.0658586103747619,0.0277088317523994,,,
0.216145038604736,0,-0.0742208450103813,-0.024755853385431,0.0574945205443526,0.0603200716161813,0.0658561069793829,0.0277007404209066,,,
0.218145132064819,0,-0.0741888373123213,-0.0247722372141167,0.0575213873411879,0.0603513640584188,0.0658474792060231,0.027664530594889,,,
0.220148086547852,0,-0.0741584165881177,-0.0247749864786847,0.0575397157716412,0.0603789237593322,0.0658501837671022,0.0276407930422775,,,
0.222147941589355,0,-0.074161523480597,-0.0247652858215911,0.0575420180013201,0.0603898537623708,0.0658494908630241,0.027627516106071,,,
0.224148988723755,0,-0.0741845234256415,-0.0247526570859739,0.057562581606219,0.0604669002255082,0.0658334646622496,0.0275907251346976,,,
0.226150989532471,0,-0.074194760524602,-0.0247352003735543,0.0575889790164207,0.0605785024855736,0.0658467415984561,0.0275570634075479,,,
0.22815203666687,0,-0.074171492358624,-0.0246963753934354,0.0576229089645039,0.0606851873618588,0.0658850748401969,0.0275569963523145,,,
0.230154037475586,0,-0.0741496770560356,-0.0246779799077487,0.0576457300955927,0.0607538519208255,0.0659124780788991,0.0275621372535392,,,
0.232155084609985,0,-0.0741464137013452,-0.0246932461492117,0.0576431149414915,0.0608058867819174,0.0659001175642154,0.0275491732417552,,,
0.234158039093018,0,-0.0741284205470586,-0.0246807068205722,0.0576617786481117,0.0608593074511656,0.0658850524884525,0.0275374162241717,,,
0.236158132553101,0,-0.0741025819304683,-0.0246543764656039,0.0577042916660657,0.0608898399340916,0.0659052361136956,0.02753851145965,,,
0.238157987594604,0,-0.0740741952150101,-0.0246551587766598,0.057837642173486,0.0609150303500927,0.0659362603349996,0.0275607067418941,,,
0.240160942077637,0,-0.0740469707902635,-0.0246689274512443,0.0580963412638117,0.0609427688649617,0.0659408200908685,0.0275668758233638,,,
0.24216103553772,0,-0.0740352584761689,-0.02466704990471,0.0582114527477566,0.0609421653678614,0.0659435246519476,0.0275541353290242,,,
0.244162082672119,0,-0.0740493400751758,-0.0246435135177986,0.0582431922248831,0.0609458981091855,0.0659440163903256,0.027506012023212,,,
0.246165037155151,0,-0.0740437297873175,-0.02462355341,0.0582776809665776,0.060977145847934,0.0659457374746487,0.0274519878568635,,,
0.248165130615234,0,-0.0740848122936263,-0.0246584891865837,0.0582577879140124,0.0609186960361834,0.0658640865521534,0.0273676770767781,,,
0.250168085098267,0,-0.0740917860378964,-0.0246599867534622,0.0582678909025062,0.0608674211344029,0.0658243227987674,0.0273444759660335,,,
0.252167940139771,0,-0.0740361078424582,-0.0246186360262198,0.0583772803398705,0.0609140692250811,0.0658832643488961,0.0273909228910116,,,
0.254168033599854,0,-0.0740018873216972,-0.0245894669997057,0.0584559361286087,0.060941897146928,0.065912813355066,0.0274245622664168,,,
0.256170988082886,0,-0.0740013955833191,-0.0245794757699342,0.0585081051001674,0.0608984900591958,0.0658967200990582,0.0274045574551293,,,
0.258171081542969,0,-0.0740201486969171,-0.0245805710054125,0.0587267051609403,0.0608593521546545,0.0658877346977871,0.0273837703327859,,,
0.260174036026001,0,-0.0740389018105151,-0.0245853766304704,0.0589116434945635,0.0608495844423276,0.065901324558416,0.0273880171642324,,,
0.262174129486084,0,-0.0740656344968837,-0.0245981618282988,0.058968662794669,0.0608404872823342,0.0659000728607265,0.0273848655682642,,,
0.264177083969116,0,-0.0740619911625375,-0.0245882376537606,0.0589698921406141,0.0608256904275048,0.0658880029187206,0.0273825856903298,,,
0.26617693901062,0,-0.0740241943626636,-0.0245710938657634,0.0589840407948543,0.0608267186077498,0.065894306110657,0.0273917499055564,,,
0.26817798614502,0,-0.0740123926415912,-0.024585309575237,0.0590043361788197,0.0608472375091597,0.0658849183779858,0.0273863184316538,,,
0.270179986953735,0,-0.0740161030311707,-0.0245738654820759,0.0590257938534968,0.0609102917802682,0.0658899251687437,0.0273879724607435,,,
0.272181034088135,0,-0.0740125714555468,-0.0245722785082195,0.0590126733795015,0.0609416065742501,0.0658889863954766,0.0273837703327859,,,
0.274183988571167,0,-0.0739951370948717,-0.0245724349704307,0.0590485702810967,0.0609321070828565,0.0658925850263339,0.0273806187368177,,,
0.27618408203125,0,-0.073981457827265,-0.0245421930601827,0.0591169442673855,0.0608449576312253,0.0659189600847912,0.0273871901496875,,,
0.278184175491333,0,-0.0739758251876623,-0.0245190143011825,0.0591966505881131,0.0607555506534041,0.0659292195354962,0.0274014058591611,,,
0.280187129974365,0,-0.0739845870714888,-0.0245270609291865,0.0592596825074771,0.060714848126751,0.0659325722971645,0.0274043562894292,,,
0.282186985015869,0,-0.0740028260949643,-0.0245486080108414,0.0592828389147328,0.0607046780830238,0.0659147579568336,0.0274123582139442,,,
0.284187078475952,0,-0.0740125491038023,-0.024543780034039,0.0592987086532961,0.0606380028293136,0.0658803809738613,0.0274003553271717,,,
0.286190032958984,0,-0.0739822848418099,-0.0244917228212026,0.059349514168443,0.0605947745555371,0.065879039869194,0.0274183931849472,,,
0.288190126419067,0,-0.0739493160187383,-0.0244571893760192,0.059377990290879,0.0605624762847991,0.0658939708344902,0.0274470257695944,,,
0.2901930809021,0,-0.0739626153066892,-0.0244721426930598,0.0593338008920909,0.0605064851649386,0.0658316988744377,0.0274085137138979,,,
0.292193174362183,0,-0.0739707289899265,-0.0244456335241358,0.0593565773196909,0.0605235171942135,0.0658078048596149,0.0274276021036627,,,
0.294193983078003,0,-0.0739769874783739,-0.0244333400646854,0.0594341378729508,0.060588046680456,0.0658219311621107,0.0274826768020006,,,
0.296197175979614,0,-0.0740123479381022,-0.0245223000076175,0.0594431009224774,0.0606102196109557,0.0657829497197806,0.027445237630038,,,
0.298197031021118,0,-0.0739758251876623,-0.0245239540367072,0.0594867538793986,0.0606719551291412,0.0658204112434877,0.0274753454298193,,,
0.300197124481201,0,-0.0739096640240746,-0.0244716286029373,0.0595689635955052,0.0607187149785417,0.0658984411833812,0.02754076898584,,,
0.302200078964233,0,-0.0739134861723764,-0.0244417890240895,0.0595969256278188,0.060723587658833,0.0659166131516234,0.0275368127270714,,,
0.304200172424316,0,-0.0739299370562955,-0.0244159504074991,0.0595807206130887,0.060682594559502,0.0658923391571449,0.0275247427850655,,,
0.306203126907349,0,-0.0739350332540313,-0.0244360669775089,0.0595786195491099,0.0606648919778933,0.0658449087554108,0.0275158467907723,,,
0.308202981948853,0,-0.0739198117160573,-0.0244609891725766,0.0596056428081563,0.0607122106209052,0.0658631924823752,0.0275345999043703,,,
0.310203075408936,0,-0.0739232091812145,-0.0244632243470221,0.0595135089175116,0.0607376916095843,0.0659000281572375,0.0275265979798553,,,
0.312206029891968,0,-0.0739204822683909,-0.0244977577922055,0.0593078728685227,0.0606641096668374,0.0658347834151725,0.027450982028363,,,
0.314207077026367,0,-0.0739802508330644,-0.0245289161239762,0.0592040043120389,0.0606084538231437,0.0657455776030514,0.0273745390623258,,,
0.316209077835083,0,-0.0739995403885294,-0.0244372739717095,0.0592505629957393,0.0606928763619514,0.0657839779000256,0.0274311560310311,,,
0.318210124969482,0,-0.073913173247954,-0.0242872490629255,0.05938000194788,0.0608710868204936,0.0659120086922656,0.0275815609194709,,,
0.320209980010986,0,-0.0739055736548392,-0.0242218478586492,0.0593977045294886,0.0608831120590105,0.0659331534425203,0.0276329922834626,,,
0.322213172912598,0,-0.0739133744136541,-0.0242707087720285,0.0593607347441596,0.0608272103461278,0.0659045432096175,0.0276285219345715,,,
0.324213027954102,0,-0.0738752199858689,-0.0243224307086981,0.0593795325612465,0.0608490032969717,0.0659214187766813,0.0276111099256408,,,
0.326215982437134,0,-0.073848911982645,-0.0243250011593105,0.0594275664600809,0.0608756689281069,0.0659472797450161,0.0276194918298116,,,
0.328216075897217,0,-0.0738783715818371,-0.0243307679093799,0.0594529356900377,0.0608645601111126,0.0659472350415272,0.0276178154489774,,,
0.330217123031616,0,-0.0738836465935286,-0.024301464772399,0.0596154328722278,0.0608519313754954,0.0659341369192764,0.0276122051611191,,,
0.332219123840332,0,-0.0738620771601292,-0.0242326884547101,0.0599469539459889,0.0609068719633665,0.0659177307388461,0.0276103052628404,,,
0.334220170974731,0,-0.0738357691569053,-0.0242368905826677,0.0600734424678615,0.0609805656648357,0.0659018833520273,0.0276345792573189,,,
0.336220026016235,0,-0.0738500966251012,-0.0242984472868976,0.0600886640058355,0.0608919186463259,0.0658631701306307,0.0276185977600333,,,
0.338222980499268,0,-0.0739031820181825,-0.0243692129098431,0.0600614619328334,0.0606962514753641,0.0658067543276255,0.0275469380673096,,,
0.340223073959351,0,-0.0739007903815258,-0.0243293821012237,0.0601280477795658,0.0606244800239182,0.0658314530052487,0.0275666523059192,,,
0.34222412109375,0,-0.0738862617476299,-0.0242758720249977,0.060203708434547,0.0605844704013432,0.0658695850812894,0.0276078465709503,,,
0.344226121902466,0,-0.073870168491622,-0.0242428584984372,0.0602348444145732,0.0605246794849252,0.0658907968867775,0.0276391166614433,,,
0.346227169036865,0,-0.0738593725990501,-0.0242259158761401,0.0602393371152088,0.0604437885217415,0.0658847172122857,0.0276382449434096,,,
0.348229169845581,0,-0.0738708166922112,-0.0242234348325056,0.0602134984986184,0.0603463349159163,0.0658468980606673,0.0276058796174383,,,
0.350229978561401,0,-0.0738690509043993,-0.0242226972249385,0.0602063012369038,0.0603136566655227,0.0658297766244145,0.0276095676552734,,,
0.352230072021484,0,-0.073809684671126,-0.0241992725967494,0.0602435392431664,0.0603590083550225,0.065857537491028,0.0276543829029063,,,
0.354233026504517,0,-0.0737936137668626,-0.0242081015358092,0.0602487024961355,0.0603450385147379,0.0658543411915709,0.0276677492460906,,,
0.3562331199646,0,-0.0738272307905234,-0.0242309003151536,0.0601962653036434,0.0602276024493697,0.0658275190982245,0.027646515088858,,,
0.358236074447632,0,-0.0738210617090537,-0.0242122813120224,0.0602024567368575,0.0601744723527995,0.0658340011041166,0.0276672575077125,,,
0.360236167907715,0,-0.0738047002321124,-0.0241803406691957,0.0602236014871122,0.060172192474865,0.0658274520429912,0.027695800685382,,,
0.362236976623535,0,-0.073795692479097,-0.0241488470612582,0.0602428239873438,0.060205965960737,0.0658120963945504,0.0277153808135248,,,
0.364181995391846,0,-0.0738015486361442,-0.0241263612063362,0.0602346656006176,0.0602145490306078,0.0657911528099957,0.0277198958659048,,,
0.366183042526245,0,-0.0738078965315696,-0.0241120337381403,0.0602263060481913,0.0602384206936861,0.0657828379610584,0.0277310940898769,,,
0.368183135986328,0,-0.0738082765112253,-0.0241370676919303,0.0602163595219087,0.060253731638638,0.0657621625974372,0.0277164760490031,,,
0.37018609046936,0,-0.0738127245083719,-0.0241735457388813,0.0601963547106212,0.0602252331644575,0.0657182861230714,0.0276838872055873,,,
0.372185945510864,0,-0.0737906186331056,-0.0241544126456276,0.0602138337747853,0.0602280494842588,0.0657192919515719,0.0276921126475468,,,
0.374189138412476,0,-0.0737911997784614,-0.0241351007384182,0.0602281388912366,0.0602309775627825,0.0657186884544716,0.0276929843655806,,,
0.376188993453979,0,-0.0737899927842608,-0.0241289763604374,0.0602500883042918,0.0602178123852983,0.065719001378894,0.0276948172086259,,,
0.378190040588379,0,-0.0737871764644595,-0.0241298033749823,0.0602569279380951,0.060183681271515,0.0657124523177686,0.0277024838569741,,,
0.380192041397095,0,-0.0737850977522251,-0.0241177334329764,0.0602637899236429,0.0601733994690656,0.0657061491258322,0.0277001816272952,,,
0.382193088531494,0,-0.0737828625777796,-0.0241025565984913,0.0602845770459863,0.0601924878588304,0.0656894300209796,0.0276844459991987,,,
0.384192943572998,0,-0.0737793086504112,-0.0241005896449792,0.0602671426853112,0.0601738688556992,0.0656489510117711,0.0276732030717377,,,
0.386196136474609,0,-0.073795938348286,-0.0241169958254094,0.0602110398067283,0.0601440739803402,0.0655890036331419,0.0276536899988282,,,
0.388195991516113,0,-0.0737925185313843,-0.0241045012002589,0.0602143925683966,0.0601210069800624,0.0655691552840656,0.027687016449811,,,
0.390196084976196,0,-0.0737904845226389,-0.0241007461071904,0.0602364984436629,0.0598500591337751,0.0655858967406627,0.027699533426706,,,
0.392199039459229,0,-0.0738648934799306,-0.024162928660265,0.0601794344400685,0.0595442425661376,0.0655250999957442,0.0276543381994174,,,
0.394200086593628,0,-0.0738964094396126,-0.0241824417331745,0.0602405441094093,0.059508524478498,0.0655104372513815,0.0276930290690695,,,
0.39620304107666,0,-0.0737918703307951,-0.0240617423131159,0.0604575348445815,0.0596000548720425,0.065643988924502,0.027836594323706,,,
0.398203134536743,0,-0.0737315876759991,-0.0240035830740432,0.060556530720774,0.0595944669359287,0.0657159391899036,0.0279006767750593,,,
0.400202989578247,0,-0.0737269608648969,-0.024018648149806,0.0605370176478645,0.0595099102866543,0.0657090101491225,0.0278839800219512,,,
0.402205944061279,0,-0.0737114487542449,-0.0240013255478532,0.0605261547000593,0.0594585236261515,0.0656884688959681,0.027882102475417,,,
0.404206037521362,0,-0.0737027315739073,-0.0239730282393728,0.0605837551455206,0.0594368647857743,0.0656681064567693,0.0278824824550727,,,
0.406207084655762,0,-0.0737130804315901,-0.0239705918992271,0.0605494005142928,0.0594071593173932,0.0656414631773786,0.0278795543765491,,,
0.408210039138794,0,-0.0737155167717358,-0.0239788173411867,0.0604471859868987,0.0594021301748908,0.0656239170579811,0.0278705466235336,,,
0.410210132598877,0,-0.0736989988325833,-0.0239926083675156,0.0604529527369681,0.0594422515561881,0.0656202513718905,0.0278723794665789,,,
0.412213087081909,0,-0.0736917345156353,-0.0240088357339902,0.0604825240948825,0.0594569366522952,0.0656098801624632,0.0278726029840234,,,
0.414212942123413,0,-0.0736928073993692,-0.0240057511932553,0.0604631004289508,0.0594498735010473,0.0656107071770081,0.0278796437835269,,,
0.416213035583496,0,-0.0737211717630829,-0.0239834441522889,0.0604228449371868,0.0594306733525602,0.0656156022090438,0.0278709936584227,,,
0.418215990066528,0,-0.0737378238127022,-0.0239807842946988,0.0603942794077729,0.0593925412765195,0.0655988160489578,0.0278569791146492,,,
0.420216083526611,0,-0.0737186907194484,-0.0239675520619812,0.0603974533554856,0.0593826841572147,0.0655988831041912,0.0278704348648113,,,
0.422217130661011,0,-0.0736878229603556,-0.0239438368611141,0.0604035777334664,0.0593950893753874,0.0656020123484149,0.027895558225579,,,
0.424220085144043,0,-0.0736884935126893,-0.0239425851634246,0.0603319627442316,0.0593656968314286,0.0655615333392064,0.0278719771351787,,,
0.426219940185547,0,-0.0737557052082664,-0.0239839582424114,0.0602772233220605,0.0593196745895951,0.0654893819081046,0.0278185341141861,,,
0.428223133087158,0,-0.0738049908047904,-0.0240052147513884,0.0602887791739439,0.0592888515339913,0.0654251429945401,0.0277784574363777,,,
0.430222988128662,0,-0.0738806514597716,-0.0240675984701632,0.0603087392817425,0.0592405717659678,0.0653510022581818,0.0277295965229984,,,
0.432223081588745,0,-0.0738565786309932,-0.0240346743505805,0.0603894737827151,0.0593080293307339,0.06536769901129,0.0277892086254607,,,
0.434226036071777,0,-0.0737927196970844,-0.0239885179982803,0.0604696271383318,0.059432282678161,0.0653984997151494,0.027882594213795,,,
0.436227083206177,0,-0.0737981288192426,-0.023978929099909,0.0604836640338497,0.0594493370591804,0.0654034170989295,0.0279027107838047,,,
0.438226938247681,0,-0.073811696328127,-0.023975643393474,0.060528546336716,0.0594339367072507,0.0654113743199556,0.0278897691237651,,,
0.440230131149292,0,-0.07381341741245,-0.023968669649204,0.0606781912658443,0.0594418492247879,0.0654125366106673,0.0278917137255327,,,
0.442229986190796,0,-0.073833154002804,-0.0239692731463043,0.0607687158308882,0.0594053264743479,0.0653879943952554,0.0278671491583764,,,
0.444232940673828,0,-0.0738270519765677,-0.0239935694925272,0.0608332900206196,0.059357516092958,0.0653188604496551,0.0278306487596808,,,
0.446233034133911,0,-0.0738052590257238,-0.0239884956465358,0.0609399748969048,0.0593833547095483,0.0652917924871197,0.0278385165737291,,,
0.448235988616943,0,-0.0738182900927413,-0.0239641098933351,0.0610039455895359,0.0594423409631659,0.0652961510772885,0.0278559285826598,,,
0.450236082077026,0,-0.0738444863372429,-0.0239367960616107,0.0610226316479005,0.0594412233759431,0.0652775097224128,0.0278349179428718,,,
0.452237129211426,0,-0.0738393454360182,-0.0239393218087342,0.0610392166422864,0.0594562660999615,0.0652419928004733,0.0278223786142324,,,
0.454239130020142,0,-0.0738445980959652,-0.0239793090795647,0.0610262079270134,0.059452511006893,0.065169617851927,0.027802083230267,,,
0.456239938735962,0,-0.0738764716835584,-0.0240388094233047,0.0609233451990301,0.0593656744796842,0.0650676491937219,0.0277455109650506,,,
0.458240032196045,0,-0.0738469673808774,-0.0240053041583662,0.0609350128096357,0.0594361271782073,0.0650753381938145,0.0278034466866787,,,
0.460242986679077,0,-0.0737730501619637,-0.0238890974389431,0.0610553546017831,0.0597280633125381,0.0651783126805201,0.0279374677464327,,,
0.46224308013916,0,-0.0737620084002028,-0.0238652257758648,0.0610963924046031,0.0598479580697963,0.0652090910326351,0.0279620323135891,,,
0.464246034622192,0,-0.0737797109818114,-0.0238871975406644,0.0610774828287939,0.0598496791541194,0.0651717859711392,0.0279401499557674,,,
0.466246128082275,0,-0.073778660449822,-0.0239059506542624,0.0610925032010678,0.0598798763608785,0.0651484731016723,0.0279377806708551,,,
0.468249082565308,0,-0.0737806944585674,-0.0239137737648217,0.0610962359423919,0.0598959249133974,0.0651402253079683,0.0279204804206467,,,
0.470250129699707,0,-0.0738066671856245,-0.0239208592678141,0.0610542146628159,0.0598431077412495,0.0651165324588457,0.0278921831121663,,,
0.472249984741211,0,-0.0737947984093187,-0.023912902046788,0.0610507277906809,0.0598069873222098,0.0651244896798718,0.0279062423594287,,,
0.474252939224243,0,-0.073802912092556,-0.0238950653547126,0.0610723642793136,0.059709354902429,0.065130144671219,0.0279092598449302,,,
0.476253032684326,0,-0.0738338692586266,-0.0238907067645439,0.0610699502909124,0.0596118565931149,0.0651106986535428,0.0279004756093592,,,
0.478255987167358,0,-0.0738260908515562,-0.023869897290456,0.0610908491719781,0.0596206855321748,0.0651226121333375,0.0279366854353768,,,
0.480256080627441,0,-0.073845179241321,-0.0238620294764077,0.0610947383755134,0.0596539672796687,0.0650998804092265,0.0279633734182565,,,
0.482256174087524,0,-0.0738876699075305,-0.0238436786942099,0.0610560475058612,0.059646568852254,0.0650434422544768,0.027923587313126,,,
0.484259128570557,0,-0.0739162577886889,-0.0238585426042727,0.0610221846130114,0.0596030947092884,0.0650092887889491,0.0278402376580522,,,
0.486260175704956,0,-0.0739332898179638,-0.0238644881682978,0.0609999893307673,0.0595619451477462,0.0649899545299953,0.0277884486661492,,,
0.48826003074646,0,-0.0739486231146602,-0.023852373522803,0.0609804986096023,0.0595104020250323,0.0649662840326171,0.0277673039158945,,,
0.490262985229492,0,-0.0739531381670401,-0.0238503395140576,0.0609570069261798,0.0593572478720245,0.0649499002039314,0.027753289372121,,,
0.492263078689575,0,-0.0739566920944085,-0.0238605766130181,0.0609281955275769,0.0591983046172028,0.0649323540845339,0.0277174818775036,,,
0.494266033172607,0,-0.0739626600101781,-0.0238693832003335,0.0609111634983019,0.0592198293471133,0.0649031403545308,0.0276811155892748,,,
0.49626612663269,0,-0.0739499195158386,-0.0238625435665302,0.060922115853085,0.0593528222266224,0.0648881199822569,0.027670520862403,,,
0.498265981674194,0,-0.0739379389808105,-0.0238384260342629,0.0609520671906551,0.0594262477071581,0.0648878741130679,0.0276829260805757,,,
0.500269174575806,0,-0.0739393247889668,-0.0238229809788443,0.0609630642489271,0.0594700571262905,0.0648949819678047,0.0277011427523068,,,
0.502269983291626,0,-0.073926472535905,-0.0237967623825982,0.0609647182780168,0.0594846751671642,0.0648966359968944,0.027726288464819,,,
0.504271984100342,0,-0.0739281042132502,-0.0237787245248228,0.060965366478606,0.0594831999520302,0.0648684727988807,0.0277347374242231,,,
0.506273031234741,0,-0.0739321722307411,-0.0237760646672326,0.0609837619642928,0.0594932135335462,0.0648664834936241,0.0277364585085462,,,
0.508273124694824,0,-0.0739373578354547,-0.0237614242746144,0.0610232351450008,0.0594934146992463,0.0648860189182781,0.0277436781220052,,,
0.510276079177856,0,-0.0739314569749185,-0.0237478120622411,0.06105117482557,0.0594778578851054,0.0648727643338161,0.0277457121307507,,,
0.512276172637939,0,-0.0739186494253456,-0.0237350045126682,0.0610693691455566,0.0595091056238539,0.0648295137082951,0.0277398336219589,,,
0.514279127120972,0,-0.0738922296633994,-0.0237271366986199,0.0611049531227294,0.0595924552789277,0.0648087265859516,0.0277483049331075,,,
0.516278982162476,0,-0.0739619447543555,-0.0238019479873118,0.0610385460899527,0.0595175322315135,0.0647369998379946,0.0276794392084407,,,
0.518282175064087,0,-0.0741163729567972,-0.0239553927129975,0.0608612967564221,0.0593189146302837,0.064609729005066,0.0275297942793124,,,
0.520282030105591,0,-0.0741515546025699,-0.0239949776524279,0.0608051715260949,0.0592372860595329,0.0645755978912828,0.0274835708717788,,,
0.52228307723999,0,-0.0741705982888458,-0.0240062429316333,0.0607603115749731,0.0592021044137602,0.0645564871497735,0.0274516749324411,,,
0.524285078048706,0,-0.0741895749198884,-0.0240063546903556,0.0606902612078501,0.0591905038583879,0.0645328837076287,0.027420203676248,,,
0.526286125183105,0,-0.0742018907310832,-0.0240019513966979,0.0606603769255134,0.0592295300042069,0.0645208808208562,0.0273917499055564,,,
0.528288125991821,0,-0.0741973086234699,-0.0239826171377441,0.0606820804693795,0.0593357901973474,0.0645236971406576,0.0273917499055564,,,
0.530289173126221,0,-0.0741815729953734,-0.0239781914923419,0.0607366187258504,0.0594794448589617,0.0645101296317732,0.0274037751440734,,,
0.532292127609253,0,-0.0741804107046617,-0.0239820359923882,0.0608052832848171,0.0595524680080972,0.0644814076401481,0.0273960190887474,,,
0.534291982650757,0,-0.0741994320391932,-0.0239836676697335,0.0608738807885505,0.0595559101767433,0.0644608440352492,0.0274025905016173,,,
0.53629207611084,0,-0.074201242530494,-0.023965920384636,0.0609257144839423,0.0595966574068853,0.0644678624830082,0.0274410355020804,,,
0.538295030593872,0,-0.0741873173936984,-0.0239541633670525,0.0609413383533166,0.059642590241741,0.0644653814393737,0.0274515408219744,,,
0.540295124053955,0,-0.0741806789255952,-0.0239481954512829,0.0609560234494237,0.0597636249379665,0.0644630568579503,0.0274471822318056,,,
0.542298078536987,0,-0.0742136253969223,-0.0239644451695019,0.060961387868093,0.0597685199700022,0.0644421579768846,0.0274210753942818,,,
0.54429817199707,0,-0.0742357312721886,-0.0239803819632986,0.0609687192402743,0.0597224530246798,0.0643970298048293,0.0274072173127195,,,
0.546298980712891,0,-0.0741902901757109,-0.0239405288029347,0.0610456092412006,0.0598155256885917,0.0643984156129856,0.0274465563829608,,,
0.548300981521606,0,-0.0741609423352411,-0.0239037378315613,0.0610736830322365,0.0598816645004349,0.0644032659415324,0.027477737066476,,,
0.550302028656006,0,-0.0741780861232383,-0.0239184899829018,0.0610296500956595,0.0598972213145758,0.0643689783655379,0.0274624931767575,,,
0.552304983139038,0,-0.074179986021517,-0.02393067168363,0.0610288230811147,0.0598914769162508,0.0643406587053131,0.0274568605371547,,,
0.554305076599121,0,-0.0741719393935131,-0.0239299787795518,0.061048179691813,0.0598140057699687,0.0643281193766736,0.0274655553657479,,,
0.556305170059204,0,-0.0741565613933279,-0.023920121660247,0.0610514653982479,0.0597160604257656,0.0643159823794344,0.0274705845082503,,,
0.558308124542236,0,-0.0741490288554464,-0.0238742782323692,0.0609609855366928,0.0595523786011194,0.0643206315422811,0.0274670529326264,,,
0.56030797958374,0,-0.0741546614950492,-0.0238357661766727,0.0608244163780709,0.0594616081668864,0.0642964916582694,0.0274360287113224,,,
0.56230902671814,0,-0.074147978323457,-0.0238602636885957,0.0607719568338343,0.0593554597324681,0.0642632322625199,0.0274376827404121,,,
0.564311027526855,0,-0.0741513981403587,-0.023913885523544,0.0607362387461947,0.0591977681753359,0.0642405899453866,0.0274179685018025,,,
0.566312074661255,0,-0.0741469277914676,-0.0239193393491911,0.0607283038769131,0.0591192017935755,0.0642512740792363,0.0272782477472124,,,
0.568315029144287,0,-0.0741575448700839,-0.0238927631250338,0.060706846202236,0.0590550075834999,0.0642630534485642,0.0271668019493582,,,
0.57031512260437,0,-0.0741652338701765,-0.0238679973921773,0.0607293097054135,0.0590167861004813,0.0642827453354294,0.0271550002282858,,,
0.572314977645874,0,-0.0741669326027551,-0.0238479255256564,0.0607557965225931,0.0589757930011503,0.0642821418383291,0.0271227019575479,,,
0.574318170547485,0,-0.0741666643818217,-0.0238422705343092,0.0607443077259431,0.058944411151935,0.0642588513206066,0.0270841004948736,,,
0.576318025588989,0,-0.0741649656492431,-0.0238498254239351,0.0607396585630963,0.0590532864991768,0.0642630087450753,0.0270799654221494,,,
0.578320980072021,0,-0.074146257239134,-0.0238526417437365,0.0607696099006665,0.0591870616897418,0.0643230231789378,0.027104887617217,,,
0.580321073532104,0,-0.0741360201401735,-0.0238444833570103,0.0607825292089616,0.059254720420208,0.0643747451156074,0.0271071674951515,,,
0.582322120666504,0,-0.0741309686459266,-0.0238291724120584,0.0607762707205141,0.0593191381477282,0.0644028189066433,0.0270922365298553,,,
0.584325075149536,0,-0.0741515546025699,-0.0238228245166331,0.0607575176069161,0.0593533363167448,0.0643930064908274,0.0270682307563103,,,
0.586325168609619,0,-0.0741944252484352,-0.0238380013511183,0.0607230512169661,0.0593411322642722,0.0643232019928935,0.0270249354273004,,,
0.588325023651123,0,-0.0742268799813843,-0.02384162233372,0.060674793800687,0.0592240985303043,0.0642516764106365,0.0269768344732326,,,
0.590327978134155,0,-0.074199275576982,-0.0238266243131905,0.0606949550741857,0.0591482143578785,0.0642392264889749,0.0269775273773107,,,
0.592328071594238,0,-0.0741606964660521,-0.0238116486444054,0.0607475263771446,0.0591631900266635,0.0642614664747079,0.0269990297554767,,,
0.594331026077271,0,-0.0741533874456152,-0.0238192035340313,0.0607545001214147,0.0590655352551383,0.0642425792506432,0.0269792708133782,,,
0.59633207321167,0,-0.0741833387831853,-0.0238152025717738,0.0607850773078295,0.0590981688020431,0.0642085598955822,0.0269524263682874,,,
0.598332166671753,0,-0.0741972415682365,-0.023783105466736,0.0608374027415994,0.0592008974195596,0.0642054977065918,0.0269741299121535,,,
0.600335121154785,0,-0.074192257129223,-0.0237646205740715,0.0608650965529795,0.0591260861308677,0.0641871245726496,0.0270052435404353,,,
0.602334976196289,0,-0.0741845904808748,-0.0237835525016251,0.0608671752652139,0.0591253261715563,0.064163387020038,0.0269870715721931,,,
0.6043381690979,0,-0.0741822211959626,-0.0238092570077487,0.0608765182943962,0.0592414434840016,0.0641592072438249,0.0269646974759933,,,
0.606338024139404,0,-0.074169771274301,-0.0237912638534622,0.0609082354197783,0.0593004297376191,0.0641617776944372,0.0269790249441892,,,
0.608338117599487,0,-0.0741506605327917,-0.0237574233123569,0.0609263626845315,0.0593196969413396,0.0641474055227525,0.026990357278628,,,
0.61034107208252,0,-0.0741387694047415,-0.0237391842888813,0.0609074531087223,0.0593208592320513,0.0641242267637523,0.0269867362960263,,,
0.612341165542603,0,-0.0741536109630598,-0.0237395195650482,0.0608950031870607,0.0593216191913628,0.0641129167810579,0.0269716935720078,,,
0.614341974258423,0,-0.0741435526780549,-0.0237635476903376,0.0609319282689009,0.0593509670318326,0.0641281159672875,0.0269606294585025,,,
0.616345167160034,0,-0.0741197704219544,-0.0237769810887553,0.0609673557838626,0.0592681538186257,0.0641387106941594,0.0269631999091148,,,
0.618345022201538,0,-0.0741122155323286,-0.0237766905160773,0.0609804986096023,0.0591466050322777,0.064116157784004,0.0269575672695121,,,
0.62034797668457,0,-0.0741231008318783,-0.0237696497165739,0.0609625501588047,0.0590871270402821,0.0641203152084726,0.0269305216587212,,,
0.622348070144653,0,-0.0741220055964,-0.0237540258471997,0.0609372926875702,0.059056192225956,0.0641750769823881,0.0269180493853151,,,
0.624348163604736,0,-0.074106739354937,-0.0237504495680868,0.0609125269547137,0.0590719949092859,0.0642050730234472,0.0269208657051165,,,
0.626351118087769,0,-0.0740885003314615,-0.0237472085651408,0.060884855495078,0.0590681057057507,0.0642178582212756,0.0269186528824154,,,
0.628352165222168,0,-0.07410825927356,-0.023747610896541,0.0608709080065379,0.0590321417489221,0.0642220379974887,0.0269153895277249,,,
0.630354166030884,0,-0.0741205527330104,-0.0237401454138929,0.060881368622943,0.0590084712515439,0.0642304422534039,0.0269257830888966,,,
0.632354974746704,0,-0.0741283758435697,-0.0237353844923239,0.0608856154543895,0.058983146725076,0.0642242955236787,0.0269257160336633,,,
0.634355068206787,0,-0.0741242184191011,-0.0237238733439295,0.0608914045562034,0.058947160416503,0.0642236473230895,0.026929582885454,,,
0.636358022689819,0,-0.0741017772676679,-0.0237078247914105,0.0609142703907812,0.0587763260336311,0.064218417014887,0.0269404681850038,,,
0.638358116149902,0,-0.0740810348488134,-0.02368384136961,0.0608976853963954,0.0586128900781739,0.0642125161543508,0.0269602494788467,,,
0.640361070632935,0,-0.0740809230900911,-0.0236870376690671,0.0607903970230099,0.0585387493418156,0.0641994850873333,0.0269549744671553,,,
0.642361164093018,0,-0.0740928365698858,-0.0237064613349988,0.0606964302893198,0.0585868726476279,0.0641792791103457,0.0269172894260036,,,
0.644361019134521,0,-0.074095496427476,-0.023684824846366,0.0606660095651161,0.0587762366266533,0.0641766192527556,0.0269081028590325,,,
0.646363973617554,0,-0.0741092651020605,-0.0236446811133243,0.0607129482284723,0.0588481645403105,0.0641740711538877,0.0268979998705387,,,
0.648365020751953,0,-0.0740964575524876,-0.0236530406657506,0.0607311872519478,0.0589149292009985,0.0641759710521664,0.026909108687533,,,
0.650367975234985,0,-0.0740766762586446,-0.0236845566254326,0.0606837121467247,0.0589909921873799,0.0641784297440564,0.0269386800454474,,,
0.652368068695068,0,-0.0740661932904951,-0.0236866129859225,0.0606151146429914,0.0591175924679747,0.0641820283749137,0.0269711571301409,,,
0.654368162155151,0,-0.0740173323771158,-0.0236725537386601,0.0605787036512737,0.0592734064785727,0.0642081352124375,0.0270136030928615,,,
0.656371116638184,0,-0.0740098892462122,-0.0236838860730989,0.0605173928162328,0.0593229826477745,0.0642033519391241,0.0270182522557082,,,
0.658370971679688,0,-0.0740403993773937,-0.0236918656458695,0.0604265553267664,0.059259973080155,0.0641737135259764,0.0269731464353974,,,
0.660372018814087,0,-0.0740460096652519,-0.0236829472998318,0.0603981909630526,0.0591845359426184,0.0641750546306437,0.0269462572868177,,,
0.662374019622803,0,-0.0740067823537329,-0.0236351592701863,0.0603915524949494,0.0592052113062395,0.0642168076892862,0.0269657703597272,,,
0.664375066757202,0,-0.0740054188973211,-0.0236098347437185,0.0603708994830727,0.0592363919897547,0.0642657356578989,0.0269874739035933,,,
0.666378021240234,0,-0.0740493177234313,-0.0235994411825468,0.0603425351193589,0.0592321898617971,0.0642964693065249,0.0270154582876513,,,
0.668378114700317,0,-0.0740645616131498,-0.023588064144619,0.0603182164213915,0.0592226456669147,0.0643095227252868,0.0270361336512725,,,
0.670377969741821,0,-0.0740635334329049,-0.0235957978482005,0.0602655780631993,0.059166207512165,0.0643074440130525,0.0270452978664992,,,
0.672381162643433,0,-0.0740591301392472,-0.0236213682438574,0.0602236238388567,0.059143229918865,0.0643149541991895,0.0270477565583893,,,
0.674381017684937,0,-0.0740710659707863,-0.0236297277962837,0.0602134984986184,0.0591363679333172,0.0643122719898548,0.0270397546338743,,,
0.676383972167969,0,-0.07406947899693,-0.0236146180170319,0.0602281612429811,0.0591476332125227,0.0643336402575541,0.0270563619800045,,,
0.678385019302368,0,-0.074062460549171,-0.0235971613046123,0.0602925789705013,0.0591823678234062,0.0643529968682524,0.0270789372419044,,,
0.680387020111084,0,-0.0740555985636233,-0.0235939873568997,0.0603166741510241,0.059188738070576,0.0643397646355348,0.0270843016605737,,,
0.682388067245483,0,-0.0740636451916272,-0.0235932273975882,0.0603023019793394,0.0591306235349922,0.0643173234841017,0.0270697059714444,,,
0.684388160705566,0,-0.0740688978515742,-0.0235958425516895,0.0603011173368832,0.059075191208743,0.0643100591671537,0.027063402779508,,,
0.686391115188599,0,-0.0740558444328123,-0.0235953731650559,0.0603211221481707,0.0590950619095638,0.0643311592139195,0.0270839216809179,,,
0.688390970230103,0,-0.0740358396215248,-0.023586544225996,0.0603574884363995,0.0591432746223539,0.0643434750251144,0.0271100061666973,,,
0.690394163131714,0,-0.0740345208686019,-0.0235920651068765,0.0603597459625895,0.0591599937272064,0.0643197598242473,0.0271008866549595,,,
0.692394018173218,0,-0.074033492688357,-0.0235939650051552,0.0603337955872769,0.0591533999625921,0.0643026830914835,0.0270679625353769,,,
0.69439697265625,0,-0.0740329785982345,-0.0235803974962708,0.0603321192064427,0.0591328140059488,0.0642960446233803,0.0270595806312061,,,
0.696397066116333,0,-0.0740260048539644,-0.0235620690658175,0.0603394505786241,0.0591090988050817,0.0642825218179848,0.0270798089599382,,,
0.698397159576416,0,-0.0740136666910251,-0.0235474733766882,0.060351766389819,0.0590938549153632,0.064286902759898,0.0270962151403684,,,
0.700400114059448,0,-0.074007229388622,-0.0235592750977606,0.0603372154041786,0.0590795274471673,0.0642868357046647,0.0270923482885776,,,
0.702399969100952,0,-0.0739853023273113,-0.0235524354639572,0.0602987257002265,0.0590887363658829,0.0642677473148998,0.0271039488439499,,,
0.704403162002563,0,-0.0739655210334684,-0.0235268874200448,0.0602780950400943,0.0590863447292262,0.0642503576577136,0.0271159740824669,,,
0.706403017044067,0,-0.073955976838586,-0.0235221712019648,0.0602601242375522,0.0590825672844133,0.0642515646519142,0.0271145882743106,,,
0.708404064178467,0,-0.0739623023822668,-0.0235283626351789,0.0602538433973603,0.0590900998222947,0.0642920660128672,0.0271605211091663,,,
0.710406064987183,0,-0.0739763392777847,-0.0235356493038713,0.060259967775341,0.0590947266333969,0.0643033089403282,0.0271913441647701,,,
0.712407112121582,0,-0.0739790661906083,-0.0235257474810776,0.060298211610104,0.0591041367178126,0.0642897414314439,0.0272066998132109,,,
0.714410066604614,0,-0.0739621235683112,-0.023515063347228,0.0603776273581537,0.0590945254676968,0.0642862545593088,0.0272161098976266,,,
0.716410160064697,0,-0.0739447562628694,-0.0234979419109752,0.0604146641987162,0.0590808238483457,0.0642875956639762,0.0272192391418504,,,
0.718410015106201,0,-0.073930205277229,-0.0234778253409654,0.0604209003354192,0.0590623389556812,0.0642957316989579,0.0272325160780568,,,
0.720412969589233,0,-0.0739015056373484,-0.0234591392826008,0.0604241860418542,0.0590431164554496,0.0643207433010034,0.0272707152093309,,,
0.722413063049316,0,-0.0738993375181362,-0.0234666047652489,0.060398749756664,0.0590133886353241,0.0643106179607651,0.0272690835319857,,,
0.724416017532349,0,-0.0739079876432404,-0.0234565688319884,0.0603851598960352,0.0590000893473732,0.0642875733122317,0.0272436025433067,,,
0.726417064666748,0,-0.0739132850066763,-0.0234513832272748,0.0603900325763264,0.0589837725739208,0.0642774926754824,0.0272255423337868,,,
0.728417158126831,0,-0.0738852782708738,-0.0234292326485196,0.0604039130096332,0.0589843090157877,0.0643077569374748,0.0272512691916548,,,
0.730420112609863,0,-0.0738603784275506,-0.0234139664070566,0.0603879762158366,0.0589869912251224,0.0643373953506226,0.0272960844392877,,,
0.732419967651367,0,-0.0738653628665641,-0.0234111947907442,0.0603740510790409,0.0589970718618717,0.0643463136966602,0.0273462417538454,,,
0.734423160552979,0,-0.0738696320497551,-0.0234053386336969,0.0603435185961149,0.058996937751405,0.0643318074145088,0.0273913475741562,,,
0.736423015594482,0,-0.0738544328635255,-0.0233967332120816,0.0603364777966115,0.0588611732555834,0.0643245654493052,0.0274248751908392,,,
0.738423109054565,0,-0.0738514377297685,-0.0233902959096784,0.0603745875209078,0.058740339725058,0.0643208103562367,0.027427713862385,,,
0.740426063537598,0,-0.0738563774652931,-0.0233795894240844,0.0604213697220528,0.0587014253379614,0.0643110202921653,0.0274184602401805,,,
0.742426156997681,0,-0.07386368648573,-0.0233768401595164,0.0604542044346576,0.0586447860175116,0.0643054323560515,0.0274065467603858,,,
0.744429111480713,0,-0.0738684697590434,-0.0233867643340545,0.0604904366124197,0.0585761661620338,0.0642933400623012,0.027383479760108,,,
0.746430158615112,0,-0.0738570033141379,-0.0233826292613303,0.0605421361973448,0.0585654820281842,0.0643007608414603,0.0273856031758312,,,
0.748430013656616,0,-0.0738289518748464,-0.0233575059005625,0.06060080952654,0.0585516239466219,0.0643154459375675,0.0273961084957252,,,
0.750432968139648,0,-0.0738077177176139,-0.0233301920688381,0.0606534478847322,0.0585085297833121,0.0643220397021818,0.0274134981529114,,,
0.752433061599731,0,-0.0737940608017517,-0.0233115730657069,0.0606721562948413,0.0584611887885557,0.0643198045277363,0.0274291220222857,,,
0.754436016082764,0,-0.0737768276067767,-0.0232969773765775,0.0606816557862348,0.0584368924423328,0.0643272923621288,0.0274439188771151,,,
0.756436109542847,0,-0.073766389342116,-0.0233035711411919,0.0606938821904519,0.0584329585353087,0.0643331038156872,0.0274402755427689,,,
0.758439064025879,0,-0.0737612707926358,-0.0233118189348959,0.0606819687106572,0.0584092433344416,0.0643238725452271,0.0274245399146724,,,
0.760439157485962,0,-0.0737453787023281,-0.0233041299348032,0.0606618521406474,0.0583650092321645,0.0643261524231616,0.0274291667257746,,,
0.762439012527466,0,-0.0737322805800772,-0.0232898918735852,0.0606623885825144,0.0583503688395463,0.0643356295628106,0.0274466234381942,,,
0.764441967010498,0,-0.0737481279668961,-0.0232885284171734,0.0606620533063475,0.0583309451736146,0.0643249007254721,0.0274414378334806,,,
0.766443014144897,0,-0.0737587673972568,-0.0232706246698647,0.0606560630388335,0.0582941542022412,0.0643345566790768,0.027441951923603,,,
0.768445014953613,0,-0.0737466080482731,-0.0232533467714008,0.0606562195010447,0.0583201269292983,0.0643593000601888,0.0274612191273235,,,
0.770446062088013,0,-0.0737214846875053,-0.0232577500650585,0.0606635955767149,0.0583540121738925,0.0643705429876498,0.0274630966738578,,,
0.772448062896729,0,-0.0737330628911332,-0.023275743219345,0.0606552136725442,0.058341025810364,0.0643620940282457,0.0274466681416831,,,
0.774449110031128,0,-0.0737523747983426,-0.0232752961844559,0.0606557501144111,0.058318495251953,0.0643568190165542,0.0274536642376976,,,
0.776451110839844,0,-0.0737449093156945,-0.0232607004953266,0.0606641096668374,0.0583045477634129,0.0643951522582951,0.0274753677815637,,,
0.778452157974243,0,-0.0737242563038178,-0.0232441155009407,0.0606442166142722,0.0583052183157466,0.0644628556922502,0.0275010499359429,,,
0.780452013015747,0,-0.0737375332400242,-0.0232594040941482,0.0606058833725313,0.0582763398619103,0.0644591005991817,0.0274813133455888,,,
0.782454967498779,0,-0.0737611143304246,-0.0232727257338435,0.0605947745555371,0.0582320610561444,0.0644440355234188,0.0274583134005443,,,
0.784455060958862,0,-0.0737692503654063,-0.023264746161073,0.0606124100819123,0.0582172865530594,0.0644594135236041,0.0274611073686012,,,
0.786458015441895,0,-0.0737524195018315,-0.023236962942715,0.0606286821518758,0.0582262943060749,0.0644844251256496,0.0274815368630334,,,
0.788459062576294,0,-0.0737411989261149,-0.0232173157593388,0.0606176850936037,0.0582219580676506,0.0644909518350305,0.0274916174997827,,,
0.790459156036377,0,-0.073741891830193,-0.0232287598524999,0.0605744344680827,0.0582115198029899,0.0644966738816111,0.0274952831858734,,,
0.792462110519409,0,-0.0737643776851151,-0.0232466859515531,0.0605251488715588,0.0581708396280813,0.0644825699308598,0.0274828332642118,,,
0.794461965560913,0,-0.0737763358683987,-0.0232540396754789,0.0604814288594042,0.0581525111976279,0.0644547420090129,0.02747675358972,,,
0.796465158462524,0,-0.073736929742924,-0.0232242224483755,0.060441754512996,0.0582024449947411,0.0644825028756264,0.0275286990438341,,,
0.798465013504028,0,-0.0737017928006402,-0.0231936005584717,0.0604068857916457,0.0582591737221686,0.0645195844196778,0.0275889369951411,,,
0.800466060638428,0,-0.0736851183992765,-0.0231721875872836,0.0603860539658134,0.0582824195364022,0.0645411985565661,0.0276122051611191,,,
0.802468061447144,0,-0.0736881135330335,-0.0231603635144667,0.0604275611552669,0.0582786867950781,0.0645438137106673,0.0276259514839591,,,
0.804469108581543,0,-0.0736854313236989,-0.0231477347788495,0.060530513290228,0.0582783515189113,0.064544976001379,0.0276469174202582,,,
0.806471109390259,0,-0.0736841349225205,-0.0231488747178167,0.0605418903281558,0.058267488571106,0.0645365046902305,0.0276511866034492,,,
0.808472156524658,0,-0.0736753283352051,-0.0231483829794387,0.0605379564211317,0.0582458073789844,0.064530246201783,0.0276496443330818,,,
0.81047511100769,0,-0.0736652029949669,-0.0231499028980616,0.0605277863774045,0.0582198346519273,0.0645213502074898,0.0276448163562794,,,
0.812474966049194,0,-0.0736508531750266,-0.0231405822206238,0.060520544412201,0.058218985285638,0.064524702969158,0.0276567074843296,,,
0.814475059509277,0,-0.0736321447649175,-0.0231154365081115,0.0605061945922607,0.0582393477248368,0.0645308049953943,0.0276638153390664,,,
0.81647801399231,0,-0.0736065520175161,-0.0230924812665559,0.0605199632668451,0.0582923213591959,0.064551212138082,0.0276793498014629,,,
0.818478107452393,0,-0.0735961584563444,-0.0230992761968704,0.0605252382785366,0.058297775184843,0.0645578506061853,0.0276838201503539,,,
0.820481061935425,0,-0.0735943479650435,-0.0231165987988232,0.0605110896242964,0.0582884545074051,0.0645506309927262,0.0276979241011052,,,
0.822481155395508,0,-0.073585094342839,-0.0231069875487074,0.0605207455779011,0.0582715565885969,0.064555727190462,0.0277381348893803,,,
0.82448410987854,0,-0.0735870612963511,-0.02308718390312,0.0605486182032368,0.0582681591234397,0.0645584988067745,0.0277700978839514,,,
0.826483964920044,0,-0.073595107924355,-0.023055712646927,0.0605453548485464,0.0582876498446047,0.0645663889725672,0.0277850959044809,,,
0.828487157821655,0,-0.0735984159825344,-0.0230469954665894,0.0605650467354115,0.0582966799493647,0.0645642655568439,0.0277884263144048,,,
0.830487012863159,0,-0.0736096812617399,-0.023060920603385,0.060588784288023,0.0582790444229894,0.0645538496439278,0.0277696732008068,,,
0.832488059997559,0,-0.0735679505548418,-0.0230485824404457,0.0605961603636933,0.0582669521292391,0.0645641090946328,0.0277740764944645,,,
0.834490060806274,0,-0.07351611685945,-0.0230415192891978,0.0606046093230974,0.0582549715942111,0.0645668360074563,0.0277883145556825,,,
0.836491107940674,0,-0.0735081596384239,-0.0230427262833984,0.0606159863610251,0.0582456062132843,0.0645594599317861,0.0278022173407337,,,
0.83849310874939,0,-0.0735011858941538,-0.0230447826438883,0.0606369970008131,0.0582476402220297,0.064563974984166,0.0278101969135042,,,
0.840494155883789,0,-0.073509836019258,-0.0230538798038816,0.0606457141811507,0.0582509035767202,0.0645644220190551,0.0277981940267317,,,
0.842494010925293,0,-0.0735022587778877,-0.0230461237485556,0.0606597957801575,0.0582509035767202,0.0645738321034708,0.0277988869308098,,,
0.844496965408325,0,-0.0734766660304863,-0.0230228332308332,0.0606874225363043,0.0582345197480344,0.0645903053391344,0.0278246584921668,,,
0.846497058868408,0,-0.07346133273379,-0.0230052200562024,0.0607522872987136,0.0582265848787528,0.0645941274874362,0.0278413328935305,,,
0.84850001335144,0,-0.0734580470273551,-0.0229861093146931,0.0608089489709078,0.0582639346437376,0.064611248923689,0.0278519499721467,,,
0.850500106811523,0,-0.0734415067364581,-0.0229563591428231,0.0608385650323111,0.0583029160860677,0.0646468999560952,0.0278717536177341,,,
0.852499961853027,0,-0.0734206078553924,-0.0229282406482983,0.0608387885497556,0.0583065594204139,0.0646561982817886,0.0278906855452878,,,
0.854503154754639,0,-0.0733914164771338,-0.0228940201275373,0.0608605591488551,0.0583083028564814,0.064669028183106,0.0279129031792764,,,
0.856503963470459,0,-0.0733918858637674,-0.0228658569295236,0.0609030051115757,0.058309755719871,0.0646785276744995,0.0279200557375021,,,
0.858505964279175,0,-0.0733952162736912,-0.022866415723135,0.0609484015045645,0.0583144719379511,0.0646810534216229,0.027911360908909,,,
0.860507011413574,0,-0.0733907012213112,-0.0228732106534494,0.060962617214038,0.0583068052896029,0.0646614956452245,0.0278934571616003,,,
0.862507104873657,0,-0.0733918635120229,-0.0228704837406258,0.060966148789662,0.058299004530788,0.0646675529679719,0.0278930324784556,,,
0.864510059356689,0,-0.0733731998054027,-0.0228351903361309,0.0609992517232003,0.0583382318423071,0.0647141340034168,0.027937333635966,,,
0.866510152816772,0,-0.0733426226189879,-0.0228044119840159,0.0610222069647559,0.0583801637149052,0.0647436830095867,0.0279818359591765,,,
0.868492126464844,0,-0.0733296362554593,-0.0228018191816591,0.0610308123863712,0.0583826671102842,0.0647412466694411,0.0279888097034466,,,
0.870491981506348,0,-0.0733276693019473,-0.0227970135566012,0.0610345674794397,0.0583727205840016,0.0647370445414835,0.0279781479213414,,,
0.872495174407959,0,-0.0733469588574122,-0.0228008580566475,0.0610150320547857,0.0583386788771962,0.0647234770325991,0.0279550809210635,,,
0.874495029449463,0,-0.0733466682847343,-0.0227862847192627,0.0610043479209361,0.0583182046792751,0.0647362398786831,0.0279571596332979,,,
0.876496076583862,0,-0.0733393816160419,-0.0227815461494382,0.0610103605401946,0.0582995856761438,0.0647354128641382,0.0279499623715833,,,
0.878498077392578,0,-0.0733311338223378,-0.0227847200971508,0.0610427035144214,0.0582958752865643,0.0647363069339164,0.0279501411855389,,,
0.880499124526978,0,-0.0733544913952936,-0.0227934372774884,0.0610577909419287,0.0582829336265246,0.0647319036402587,0.0279552597350192,,,
0.882501125335693,0,-0.0733701823199013,-0.0227853012425067,0.06105589104365,0.0582548151319999,0.0647239911227216,0.0279552373832747,,,
0.884502172470093,0,-0.0733737585990141,-0.0227765617104246,0.0610374732062189,0.0582274342450421,0.0647090601574254,0.0279350537580316,,,
0.886505126953125,0,-0.0733733786193584,-0.0227646929341189,0.0610297171508929,0.0582147831576804,0.0647040086631785,0.0279255766183825,,,
0.888504981994629,0,-0.0733719481077132,-0.0227680233440427,0.0610267220171359,0.0582050601488424,0.064704276884112,0.027924324920693,,,
0.890505075454712,0,-0.0733712105001462,-0.0227858376843736,0.0610193906449545,0.0582069376953766,0.0646936374537513,0.0279200780892465,,,
0.892508029937744,0,-0.0733644155698318,-0.0227854800564623,0.0610258055956132,0.0582354585213016,0.0646930786601399,0.0279246825486043,,,
0.894509077072144,0,-0.0733496187150024,-0.0227681574545094,0.0610495654999692,0.0582568938442342,0.0646952020758631,0.0279407981563566,,,
0.896511077880859,0,-0.0733405439067535,-0.0227367085500608,0.0610688327036897,0.0582385430620364,0.0646964761252971,0.0279518175663731,,,
0.898512125015259,0,-0.073326819935658,-0.0227083665380915,0.061097174715659,0.0582153866547807,0.0647094401370812,0.0279594395112323,,,
0.900511980056763,0,-0.0733301056420929,-0.0227206823492864,0.0610952301138914,0.058192230247525,0.0647035169248005,0.0279498953163499,,,
0.902515172958374,0,-0.0733336148659724,-0.0227239010004879,0.0610885916457882,0.0581801826572636,0.0647059309132017,0.0279485989151715,,,
0.904515027999878,0,-0.073311799563384,-0.0226975706455196,0.061110921038499,0.0581861282212887,0.064722001817465,0.0279622558310337,,,
0.90651798248291,0,-0.0732954380864427,-0.022695871912941,0.0611066742070525,0.0581816355206532,0.0647136422650388,0.0279583666274985,,,
0.908518075942993,0,-0.0732833457926924,-0.0226912451018387,0.0610623059943087,0.0582116762652011,0.064714782204006,0.027969587203215,,,
0.910521030426025,0,-0.0732851786357377,-0.0226782140348213,0.0610217375781223,0.0582540328209439,0.0647161456604178,0.0279915142645257,,,
0.912521123886108,0,-0.073292800580597,-0.0226693180405281,0.061015635551886,0.058264985175727,0.0647189172767302,0.0279991809128739,,,
0.914520978927612,0,-0.0732892019497397,-0.0226652947265261,0.0609996764063449,0.0582563797541117,0.0647340717594709,0.0279973033663396,,,
0.916524171829224,0,-0.0732719687547646,-0.0226572704502667,0.0609677581152628,0.0582668180187724,0.0647585916231384,0.0279950905436385,,,
0.918524026870728,0,-0.0732653973418948,-0.0226504308164633,0.0609511731208769,0.058310247458249,0.0647724944081896,0.0279940176599047,,,
0.92052698135376,0,-0.0732683924756518,-0.0226443511419715,0.0609428582719396,0.0583048383360908,0.0647637548761076,0.0279987785814737,,,
0.922527074813843,0,-0.0732884643421727,-0.0226467427786282,0.0608978865620955,0.0582546363180442,0.0647139104859722,0.0279870439156346,,,
0.924529075622559,0,-0.0732944769614311,-0.0226420489122926,0.0608509255469949,0.0582122350588125,0.0646825509885014,0.027995358764572,,,
0.926530122756958,0,-0.073289313708462,-0.0226347622436002,0.060818627276257,0.058184965930577,0.0646622779562805,0.0280171964189048,,,
0.92853307723999,0,-0.0732977626678661,-0.0226235640196281,0.0607761589617919,0.0581720242705374,0.0646422284415041,0.0280215550090736,,,
0.930533170700073,0,-0.0733252329618016,-0.0226192501329482,0.0607023758533449,0.0581554839796405,0.0646280127320305,0.0280075851687891,,,
0.932533979415894,0,-0.0733364535375182,-0.0226183784149144,0.0606293080007205,0.0581419388225006,0.0646222683337055,0.0280025113227977,,,
0.934537172317505,0,-0.0733527032557372,-0.0226240334062616,0.0606138852970463,0.0581989357708616,0.0646122994556784,0.0280002314448633,,,
0.936537027359009,0,-0.0733564136453168,-0.0226075825223425,0.0605740768401714,0.058264493437349,0.064613998188257,0.0280279699597323,,,
0.938537120819092,0,-0.073363789720987,-0.0226007652402836,0.0605089215050842,0.0582832018474581,0.0646094607841326,0.0280501205384875,,,
0.940540075302124,0,-0.0733651755291433,-0.0225958925599924,0.0604831499437272,0.0582899520742836,0.0646121876969561,0.0280551943844789,,,
0.942541122436523,0,-0.073347294133579,-0.0225760218591716,0.0605181974790332,0.0583277488741575,0.0646274762901635,0.0280699241840749,,,
0.944544076919556,0,-0.0733426449707323,-0.0225783240888505,0.0605324355402512,0.0583586836884837,0.064628482118664,0.028072137006776,,,
0.946544170379639,0,-0.0733390016363861,-0.0225717526759806,0.0606005413056065,0.0583734581915686,0.0646349417728116,0.0280472818669417,,,
0.948544025421143,0,-0.0733290551101035,-0.0225548100536835,0.0606951338881414,0.0583896855580432,0.0646343382757113,0.0280303839481335,,,
0.950546979904175,0,-0.0732924653044302,-0.0225309383906053,0.0607179773709747,0.0584116796745872,0.0646417814066149,0.0280377823755482,,,
0.952548027038574,0,-0.0732682136616962,-0.022511827649096,0.0607346741240828,0.0584057564623066,0.0646584334562341,0.0280464101489079,,,
0.95455002784729,0,-0.0732556296295678,-0.0224847373348161,0.060771845075112,0.0583913172353884,0.0646883177385709,0.0280725840416651,,,
0.956551074981689,0,-0.0732569707342351,-0.0224705663288315,0.0607913581480215,0.0583833823661068,0.0646951573723742,0.0280897054779178,,,
0.958551168441772,0,-0.0732598317575254,-0.0224667888840185,0.0607870889648305,0.0583623270228299,0.0646868648751813,0.0280882973180172,,,
0.960554122924805,0,-0.0732646820860722,-0.0224668782909963,0.0607508791388129,0.058347016077878,0.0646707716191735,0.0280857268674048,,,
0.962555170059204,0,-0.0732588929842583,-0.0224557247705132,0.0606975925800315,0.0583249102026117,0.0646628143981474,0.0280974615332438,,,
0.964558124542236,0,-0.0732548473185119,-0.0224466499622643,0.0606354547304457,0.058324284353767,0.0646680894098388,0.0281438861064775,,,
0.96655797958374,0,-0.0732494381963537,-0.0224503603518439,0.0605973673578939,0.0583203057432539,0.0646777230116991,0.0281863320691981,,,
0.968558073043823,0,-0.0732494381963537,-0.0224549201077128,0.0605331954995627,0.0583085040221815,0.0646744149535197,0.0282010842205386,,,
0.970561027526855,0,-0.0732503322661319,-0.0224496674477658,0.0604221967365976,0.0583135108129395,0.0646733867732747,0.0282035652641732,,,
0.972561120986938,0,-0.073264033885483,-0.0224498686134659,0.0603765991779088,0.0583126614466502,0.0646609815551021,0.0281875167116543,,,
0.974563121795654,0,-0.0732797024583462,-0.0224473875698313,0.0604046282654558,0.0582880968794938,0.0646393003629804,0.0281762514324488,,,
0.976564168930054,0,-0.073284061048515,-0.0224538248722344,0.0604168993731617,0.0582623029663924,0.0646246823221066,0.0281898636448221,,,
0.97856616973877,0,-0.0732726616588428,-0.0224486169157764,0.0604109314573922,0.058247014373185,0.0646295773541423,0.0282101143252986,,,
0.980566024780273,0,-0.0732725722518649,-0.0224507403314996,0.0603908595908713,0.0582314128555552,0.0646401944327586,0.0282190997265696,,,
0.982568979263306,0,-0.0732761708827222,-0.0224489521919432,0.0603608411980678,0.0582196111344828,0.0646509456218416,0.028225648787695,,,
0.984569072723389,0,-0.07327831665019,-0.0224456217820194,0.060343764465304,0.0581968570586273,0.0646382051275021,0.0282306332267086,,,
0.986572027206421,0,-0.0732831446269923,-0.0224424478343067,0.0603583154509444,0.0581528911772837,0.0646194073104152,0.0282463688548051,,,
0.988572120666504,0,-0.07327380159781,-0.0224297073399672,0.060407735157935,0.0581110934151522,0.0646209495807826,0.0282669771631929,,,
0.990573167800903,0,-0.0732654420453837,-0.0224246334939758,0.060402482497988,0.0581016609789921,0.0646137746708124,0.0282685864887937,,,
0.992576122283936,0,-0.0732528356615109,-0.0224112447990471,0.0603254360348506,0.0580892781125639,0.0645994695543611,0.0282733921138516,,,
0.994575977325439,0,-0.0732427326730171,-0.0224006947756642,0.0603185964010473,0.0578321883478389,0.0645916240920572,0.0283010188699983,,,
0.996579170227051,0,-0.0732391340421598,-0.0223960903163064,0.0603690219365385,0.0575683930597774,0.0646012129904286,0.0283333394924807,,,
0.998579025268555,0,-0.0732383964345928,-0.0223874848946911,0.0603947264426621,0.0575232872394666,0.0646139311330236,0.0283597816061713,,,
1.00058197975159,0,-0.0732457948620075,-0.0223791029905204,0.0604672131499306,0.0574818024017575,0.0646050798422193,0.0283631790713285,,,
1.00258302688599,0,-0.0732525227370885,-0.0223684412084152,0.0605171692987882,0.0574424633315162,0.0646024199846292,0.0283690352283758,,,
1.00458312034607,0,-0.073249058216698,-0.0223551642722087,0.0604857427460841,0.0574341037790899,0.0646125006213785,0.0283843908768166,,,
1.0065860748291,0,-0.0732592953156585,-0.0223644625979021,0.0604208556319303,0.0574292534505431,0.0646019058945067,0.0283741090743672,,,
1.00858616828918,0,-0.0732635197953605,-0.0223731797782397,0.0604724881616221,0.0573969551798052,0.0645826386907862,0.0283635590509843,,,
1.01058912277222,0,-0.0732491699754202,-0.0223652002054692,0.0605383140490429,0.0573747598975611,0.0645863937838547,0.0283720527138773,,,
1.01258897781372,0,-0.0732564789958571,-0.0223738726823178,0.0605453772002908,0.0573527434292726,0.0645856114727988,0.0283799652314145,,,
1.01459097862244,0,-0.073268548937863,-0.0223839309673227,0.0605206785226677,0.0573212274695906,0.0645686017952683,0.0284013111473693,,,
1.01659202575684,0,-0.0732368765159698,-0.022356505376876,0.0604910848130089,0.0573180982253669,0.064585723231521,0.028436202220464,,,
1.01859211921692,0,-0.0731817347623986,-0.0223124277368102,0.0605087873946175,0.0573319116034402,0.0646214413191606,0.028474982497094,,,
1.02059412002563,0,-0.0731500399887609,-0.0222741615503027,0.0605485958514924,0.0573402711558665,0.0646435695461714,0.0285136510150017,,,
1.02259516716003,0,-0.0731415910293568,-0.0222590294193064,0.0605675501307905,0.0573425063303121,0.0646348300140893,0.0285372544571465,,,
1.02459716796875,0,-0.0731453237706809,-0.0222599681925736,0.0606700105273736,0.0573297434842281,0.0646248611360623,0.0285357792420124,,,
1.02659797668457,0,-0.0731407416630675,-0.0222439643435436,0.0607689840518217,0.0573359349174422,0.064631767825099,0.0285431553176827,,,
1.02859997749329,0,-0.0731355560583539,-0.0222252112299456,0.0608287749682397,0.0573474460658367,0.0646336006681443,0.0285590921114793,,,
1.03060007095337,0,-0.0731250507384599,-0.0222054746395915,0.0608489138899939,0.0573591360281868,0.0646466093834173,0.0285827626088575,,,
1.0326030254364,0,-0.0730935571305224,-0.0221641462640937,0.0607884077177534,0.0573675179323575,0.0646691846453172,0.0286232192663216,,,
1.03460311889648,0,-0.0730752510518135,-0.0221836369852587,0.0606973467108425,0.0573526316705503,0.0646780359361215,0.0286350656908829,,,
1.0366051197052,0,-0.0730665338714759,-0.0221946116917863,0.0606785265420111,0.0573478931007258,0.0646942856543405,0.0286449675136766,,,
1.0386061668396,0,-0.0730562967725154,-0.0221770655723888,0.0606435460619385,0.0573688590370249,0.0647013264538439,0.0286584679673276,,,
1.04060816764832,0,-0.0730592919062724,-0.0221668284734283,0.0605593917440643,0.0573521399321723,0.064697012567164,0.0286569256969602,,,
1.04260897636414,0,-0.0730495465456899,-0.0221603464675363,0.0605027971271035,0.057329542318528,0.0647084566603251,0.0286703143918889,,,
1.04461097717285,0,-0.0730161530394737,-0.0221410569120713,0.0604403240013509,0.057311526812497,0.0647321048059588,0.0286720578279564,,,
1.04661107063293,0,-0.0730129343882721,-0.0221420180370829,0.0603748333900968,0.0572529428902796,0.0647242369919106,0.0285902057397611,,,
1.04861402511597,0,-0.0730198187255643,-0.0221297245776325,0.0603363660378893,0.0571768799038982,0.0647195654773194,0.0285360251112014,,,
1.05061411857605,0,-0.0730293405687023,-0.0221179452083046,0.0602681038103227,0.0571563386507438,0.0647213312651314,0.0284920368781134,,,
1.05261707305908,0,-0.0730332297722375,-0.0221178110978378,0.0602783632610277,0.0571628206566358,0.0647213089133869,0.0284786928866736,,,
1.05461716651917,0,-0.0730385271356734,-0.0221257906706084,0.0603241396336722,0.0571916097034943,0.0647103118551149,0.0284871418460777,,,
1.05661916732788,0,-0.073054016894581,-0.0221400510835708,0.0603118685259662,0.0571952977413294,0.0646971243258863,0.0284708474243697,,,
1.05861902236938,0,-0.0730590236853389,-0.0221451919847956,0.0603206080580483,0.0571779080841432,0.0646852331978361,0.0284554694241845,,,
1.06062197685242,0,-0.0730573920079937,-0.0221381958887811,0.0603833047012454,0.0571467721041169,0.0646717327441851,0.0284492556392259,,,
1.0626220703125,0,-0.0730611471010622,-0.0221394475864706,0.0603869927390805,0.0570902445423895,0.0646610039068465,0.0284387503193319,,,
1.06462502479553,0,-0.0730698419296553,-0.0221521880808101,0.060319222249892,0.0570531182948492,0.0646513256014974,0.0284414325286666,,,
1.06662511825562,0,-0.0730714512552561,-0.0221588712524022,0.0602701378190682,0.0570179366490765,0.0646447988921164,0.0284606550288981,,,
1.06862807273865,0,-0.0731468883927928,-0.0222433831981877,0.0601686608992411,0.0568805851793987,0.0645541625683501,0.0283930857054097,,,
1.07062816619873,0,-0.0732381058619149,-0.0223350924056879,0.0600663569648691,0.0567899041521435,0.0644578712532367,0.0283161062975057,,,
1.07263016700745,0,-0.0732977403161216,-0.0223827463248666,0.0599962171907684,0.0567691393815445,0.0644091444503241,0.0282769683929644,,,
1.07463002204895,0,-0.0733291445170813,-0.0223974537727182,0.0599547323530593,0.0567552589482378,0.0643823894122111,0.0282582376311109,,,
1.07663297653198,0,-0.073352300924337,-0.0224087637554126,0.0599750053852803,0.0567122094884168,0.0643540026967529,0.0282497663199623,,,
1.07863306999207,0,-0.0733622027471307,-0.0224133458630259,0.0599737983910797,0.0567248382240341,0.0643468054350383,0.0282512415350964,,,
1.0806360244751,0,-0.0733678353867335,-0.0224198502206624,0.0599561852164489,0.0567054592615913,0.0643333049813873,0.0282218936946265,,,
1.08263611793518,0,-0.0733663825233439,-0.0224169221421387,0.0599542406146813,0.0566523068132766,0.0643140377776668,0.0282094437729649,,,
1.08463907241821,0,-0.0733523679795704,-0.0224040698890769,0.0600249391823935,0.0566461153800625,0.0643069969781634,0.0282283757005186,,,
1.0866391658783,0,-0.0733396721887198,-0.0223953974122283,0.0601813343383472,0.0566390969323035,0.0643113555683321,0.0282392610000683,,,
1.08864212036133,0,-0.0733342630665616,-0.0223924469819602,0.0602985915897598,0.0566419132521049,0.0643113332165877,0.0282455418402602,,,
1.09064197540283,0,-0.0733159793395971,-0.0223769348713082,0.0603735369889184,0.0566181756994934,0.064323425510338,0.0282556671804985,,,
1.09264206886292,0,-0.0733035294179355,-0.0223555666036089,0.060407243419557,0.0565632127598778,0.0643418656995136,0.0282600034189228,,,
1.09464406967163,0,-0.0733015848161679,-0.0223336842457872,0.060396492230474,0.0564907931078426,0.0643505381763623,0.0282569859334214,,,
1.09664511680603,0,-0.0733101678860388,-0.0223326784172867,0.0603997555851645,0.0564263977320668,0.0643414633681134,0.0282456983024714,,,
1.09864711761475,0,-0.0732977850196105,-0.0223382440016561,0.0604399216699507,0.0564201392436194,0.0643508511007847,0.028245430081538,,,
1.10064697265625,0,-0.073274785074566,-0.0223436978273032,0.0604702976906654,0.0564367689414941,0.0643590318392553,0.028237674026212,,,
1.10265016555786,0,-0.0732401175189158,-0.0223097231757311,0.0604978797433233,0.05646955895061,0.0643797072028765,0.0282365564389892,,,
1.10465002059937,0,-0.0731557396835971,-0.0222088274012598,0.0605634374098107,0.0565658055622346,0.0644589441369705,0.0283098031055693,,,
1.10665202140808,0,-0.0730456796938991,-0.0220877032980565,0.0606192944192045,0.0566815875985131,0.0645706805075026,0.0284099165689846,,,
1.10865306854248,0,-0.0730141860859616,-0.0220474031028036,0.0606042516951861,0.0567052804476357,0.0646012576939175,0.0284298319732943,,,
1.1106550693512,0,-0.0730097604405594,-0.0220255654484708,0.06058254815132,0.0566958927149645,0.0646035375718519,0.0284352857989413,,,
1.1126561164856,0,-0.0730093581091592,-0.022008689881407,0.06068082877169,0.0566772290083443,0.0646140428917459,0.0284479145345586,,,
1.11465907096863,0,-0.072988235710649,-0.0219853770119401,0.060876361832185,0.0566799559211678,0.0646439495258271,0.0284784023139956,,,
1.11665916442871,0,-0.072956965620156,-0.0219616171075841,0.0608889458643134,0.0567486204801345,0.0646629038051252,0.0285011563898511,,,
1.11865901947021,0,-0.0729363573117682,-0.0219488542615002,0.0608917174806258,0.056756398887205,0.0646727385726855,0.0285033468608078,,,
1.12066698074341,0,-0.0729298753058762,-0.021941187613152,0.060940868966683,0.0567346059363611,0.0646808299041784,0.0285043303375638,,,
1.12266707420349,0,-0.072951712960209,-0.0219459261829765,0.0609876064643391,0.0567247264653118,0.0646598639678793,0.0284749601453495,,,
1.12467002868652,0,-0.0729492542683189,-0.0219416346480411,0.0609991176127336,0.0567215525175992,0.0646518843951087,0.0284743566482492,,,
1.12667012214661,0,-0.0729196382069156,-0.0219286482845126,0.0610147861855967,0.0567215748693436,0.0646685811482169,0.0284907181251905,,,
1.12866997718811,0,-0.0728927714100804,-0.021909425784281,0.0610539464418824,0.056706621552303,0.0646823274710569,0.028502229273585,,,
1.13067102432251,0,-0.0728372720285978,-0.0219052013045789,0.0610510183633588,0.0566614710285033,0.0646669271191272,0.028506453753287,,,
1.13267111778259,0,-0.0727652323562184,-0.021900932121388,0.0610333381334946,0.0566207237983613,0.0646493362962408,0.0285294536983316,,,
1.1346709728241,0,-0.0727523130479232,-0.0218963053102857,0.0610290465985592,0.0565703876698479,0.0646418261101039,0.0285414118816151,,,
1.1366720199585,0,-0.0727526930275789,-0.0218917679061613,0.060976899978745,0.0565351613205864,0.0646375792786573,0.028539735500781,,,
1.13867402076721,0,-0.0727428359082742,-0.0218911867608055,0.0608969254370839,0.0565105744016855,0.0646340477030334,0.0285387967275139,,,
1.14067506790161,0,-0.0727421206524516,-0.0218962159033079,0.060834340552609,0.0565126754656643,0.0646178426883033,0.028535712186779,,,
1.14267706871033,0,-0.0727395278500948,-0.0218913208712722,0.0607340035717492,0.0565393410967995,0.0646055492288529,0.0285439376287386,,,
1.14467811584473,0,-0.0727308106697572,-0.0218811284758006,0.0605780107471956,0.0565917112340583,0.0646070244439869,0.0285564099021447,,,
1.14667797088623,0,-0.0727418747832626,-0.0218917679061613,0.060497276246223,0.05661810864426,0.0645873996123552,0.0285218541052168,,,
1.14868116378784,0,-0.072731436518602,-0.0218817096211564,0.0604543161933799,0.0566894554125613,0.0645825269320639,0.0285158861894472,,,
1.15068101882935,0,-0.0727344093006145,-0.0218862470252808,0.0603770238610535,0.0566922717323627,0.06456073398122,0.0285127569452234,,,
1.15268397331238,0,-0.0727383879111276,-0.0218894433247379,0.0603177023312691,0.0566612475110587,0.0645430537513559,0.0285088006864549,,,
1.15468406677246,0,-0.0727352139634149,-0.021882670746168,0.0602705177987239,0.0566057034260873,0.0645421596815776,0.028518478991804,,,
1.15668702125549,0,-0.072811455763752,-0.0219590690087162,0.0601676103672517,0.0564647756772966,0.064468197759175,0.0284465957816357,,,
1.15868711471558,0,-0.0729356644076901,-0.0220876585945676,0.0600349527639094,0.0562989033816938,0.0643310474551973,0.0283196378731296,,,
1.16069006919861,0,-0.0729761881203876,-0.0221380841300588,0.0599815767981502,0.0562328092733394,0.0642673673352441,0.0282631103114021,,,
1.16269016265869,0,-0.0729958353037638,-0.0221751433223657,0.0599564310856379,0.0561949454182321,0.0642312916196932,0.0282294932877413,,,
1.1646900177002,0,-0.072986961661215,-0.0221607487989365,0.0600269061359055,0.0561879493222176,0.0642381089017521,0.0282368470116671,,,
1.16669297218323,0,-0.0729726565447636,-0.0221308868683442,0.0600964200611615,0.0561896033513073,0.0642581584165285,0.0282719616022064,,,
1.16869306564331,0,-0.0729399559426255,-0.0220766615362956,0.0601685044370299,0.0562026344183248,0.0643004702687824,0.0283297632133678,,,
1.17069602012634,0,-0.0728236598162246,-0.0219531010929467,0.0603052971130964,0.0562812231518296,0.0644122066393145,0.0284575481364188,,,
1.17269706726074,0,-0.072748423844388,-0.0218631576732585,0.060384019957068,0.0563472278532061,0.06448994600653,0.0285595838498573,,,
1.17469716072083,0,-0.0727389690564834,-0.0218256514460625,0.0604263765128108,0.0564147077697167,0.0645368399663973,0.0286443863683207,,,
1.17670011520386,0,-0.0726990935443751,-0.0217777963611837,0.0603960675473294,0.0564829029420499,0.0645964073653707,0.0287183706424678,,,
1.17869997024536,0,-0.0726860177738688,-0.0217314611949278,0.0603140142934339,0.0565130554453201,0.0646364616914346,0.0287452150875586,,,
1.18070316314697,0,-0.0727528047863012,-0.0217162396569538,0.0602724624004915,0.0565205209279681,0.0646501856625301,0.0287558321661749,,,
1.18270397186279,0,-0.0727713343824547,-0.0217160161395092,0.0603625399306464,0.0564896978723643,0.0646663459737713,0.028768058570392,,,
1.18470406532288,0,-0.0727637794928288,-0.021716150249976,0.0604078245649129,0.056442558043308,0.0646778124186769,0.0287739147274393,,,
1.18670701980591,0,-0.072768160434742,-0.0216958325142661,0.0602771786185716,0.0564044706707562,0.0646765830727319,0.0287644375877902,,,
1.18870711326599,0,-0.0727348339837592,-0.0216564710922803,0.060100666892608,0.0563995756387205,0.0646892118083491,0.0287615765644999,,,
1.19071006774902,0,-0.0726454940611713,-0.0216531853858454,0.0599820461847837,0.0563607283068571,0.0646917152037281,0.0287527029219512,,,
1.19271016120911,0,-0.0725996506332935,-0.0216634448365503,0.0599930879465446,0.0562769092651497,0.0646788182471774,0.028741012959601,,,
1.19471096992493,0,-0.0725714650835353,-0.0216443117432966,0.0599895563709207,0.0562600560498304,0.0646851884943472,0.0287426222852018,,,
1.19671416282654,0,-0.0725475934204571,-0.0216396625804499,0.0599455010825993,0.0562443651252228,0.0646900611746384,0.0287521441283398,,,
1.19871401786804,0,-0.0725369316383519,-0.0216373827025154,0.0599855777604077,0.0561988122700229,0.0646864625437811,0.0287635658697564,,,
1.20071697235107,0,-0.0725290861760481,-0.0216242398767757,0.0601070147880333,0.0560987658618409,0.0646656083662043,0.028770025523904,,,
1.20271706581116,0,-0.0725246381789015,-0.0216125499144256,0.0602166724463311,0.0560109682096205,0.0646481516537847,0.0287903432596139,,,
1.20471811294556,0,-0.0725285720859256,-0.0216003682136975,0.0604059917218675,0.0559714950289124,0.064631231383232,0.0288328339258234,,,
1.20672011375427,0,-0.072546118205323,-0.0216140251295597,0.0605391634153322,0.0559625766828748,0.064614489926635,0.0288698484146414,,,
1.20872116088867,0,-0.0725569364496394,-0.0216261397750544,0.0606092137824552,0.0559945173257014,0.0646032022956851,0.0288905014265181,,,
1.2107241153717,0,-0.0725732979265807,-0.0216461445863419,0.0606296209251429,0.0560345716517653,0.0645869525774661,0.0288711224640754,,,
1.21272397041321,0,-0.0725753542870705,-0.0216497432171992,0.060628793910598,0.0560516036810403,0.064585231493143,0.028855833870868,,,
1.21472406387329,0,-0.0726056409008075,-0.0216493632375435,0.0606486869631633,0.0559840790610408,0.0645804035163407,0.0288656909901727,,,
1.21672701835632,0,-0.0726500985205291,-0.0216553982085464,0.0606645119982376,0.0558971531268541,0.0645579176614186,0.0288962458248431,,,
1.21872711181641,0,-0.0727368009372712,-0.0217061813719489,0.0605899465787347,0.055807656742055,0.0644970315095224,0.0288602371645256,,,
1.22073006629944,0,-0.0729470637973623,-0.0218453880364165,0.0603979227421192,0.0556197009229304,0.0643564390368985,0.0287191082500348,,,
1.22273015975952,0,-0.0730424610426976,-0.0219201099181306,0.0603039783601735,0.0555096409332324,0.0642884897337544,0.0286403183508299,,,
1.22473311424255,0,-0.0730750722378578,-0.0219485413370778,0.060320742168515,0.0555304057038314,0.0642884897337544,0.0286277790221905,,,
1.22673296928406,0,-0.0730474901852,-0.0219623994186401,0.0602889132844106,0.0555793560241885,0.0642967375274584,0.0286352221530941,,,
1.22873306274414,0,-0.0729441580705831,-0.0219408746887296,0.0601698231899528,0.0556064016349794,0.0643158706207121,0.0286621783569072,,,
1.23073601722717,0,-0.0729073447474652,-0.0219398465084847,0.0600159090776335,0.0556440643243866,0.0643218608882261,0.028655249316126,,,
1.23273706436157,0,-0.0728957888955818,-0.0219337891857373,0.0598449182325504,0.0556883431301526,0.0643122719898548,0.0286609266592177,,,
1.23473906517029,0,-0.0729004827619174,-0.0219489883719669,0.0597338747660964,0.055674865028246,0.0642838405709077,0.0286680792174434,,,
1.23674011230469,0,-0.0728917655815799,-0.0219590690087162,0.0596960556144781,0.055634117798104,0.0642759951086039,0.0286640111999525,,,
1.23873996734619,0,-0.0728673351248902,-0.0219501506626786,0.0597131099954975,0.0555959857220633,0.0642789231871275,0.028665508766831,,,
1.2407431602478,0,-0.0728503030956153,-0.0219333197991037,0.0597309466875728,0.0555795571898886,0.064263679297409,0.028684753618807,,,
1.24274301528931,0,-0.0728705314243473,-0.0219352420491269,0.0597251799375033,0.0555452249104053,0.0642293917214145,0.0286678556999988,,,
1.24474596977234,0,-0.0728741524069491,-0.0219225239065318,0.0597198155188341,0.0555189616106703,0.064205900037992,0.0286479626474336,,,
1.24674701690674,0,-0.0728710008109809,-0.0219246026187661,0.0597241070537695,0.0554821706392968,0.064189158581395,0.0286360938711278,,,
1.24874711036682,0,-0.0728452292496239,-0.0219160642523842,0.0597454529697243,0.055471575912425,0.0642104374421164,0.0286151279348288,,,
1.25075006484985,0,-0.0728257385284589,-0.0218981158015866,0.0597950291389262,0.0552932089916717,0.0642312245644599,0.0285613496376693,,,
1.25275015830994,0,-0.0728377861187203,-0.0218791391705441,0.0598673370322391,0.0550226634767846,0.0642234685091339,0.028530258361132,,,
1.25475311279297,0,-0.0728440446071678,-0.0218701090657841,0.0599004623175219,0.0549655324179569,0.0642309563435264,0.0285263244541078,,,
1.25675296783447,0,-0.0728225198772573,-0.0218571003505111,0.0599018481256781,0.0549848666769107,0.0642545374339268,0.0285472680386624,,,
1.25875401496887,0,-0.0727991623043015,-0.0218348380130336,0.0599584650943834,0.0550345322530904,0.0642790125941053,0.0285671610912277,,,
1.26075601577759,0,-0.072827169040104,-0.0218241985826729,0.0601210069800624,0.0550679034075622,0.0642812477685508,0.028561483748136,,,
1.26275706291199,0,-0.0728496101915372,-0.0218150567191907,0.060259721906152,0.0550764194221997,0.0642776491376935,0.0285755429953984,,,
1.26476001739502,0,-0.0728676927528015,-0.021820130565182,0.0603511181892298,0.0550592756342024,0.0642754363149925,0.0285899822223165,,,
1.2667601108551,0,-0.0729127091661345,-0.0218102063906439,0.0604352948588484,0.0550396955060596,0.064289160286088,0.0286153514522733,,,
1.26875996589661,0,-0.0729458344514173,-0.0218003716230835,0.0606094372998997,0.0550036197905087,0.0642895402657438,0.0286401395368742,,,
1.27076315879822,0,-0.0729442474775609,-0.0217915203322792,0.0606816110827459,0.0549289426122835,0.0642841981988189,0.0286680345139545,,,
1.27276301383972,0,-0.0729196829104046,-0.02179087213169,0.0606269163640638,0.054889938818209,0.0642668308933772,0.0286974047061687,,,
1.27476596832275,0,-0.0728349474471745,-0.0217915650357682,0.0606122759714456,0.0548892682658754,0.0642460214192893,0.0287208293343579,,,
1.27676606178284,0,-0.0727700379812763,-0.0217729907361258,0.0606394780444477,0.0548763936610691,0.0642466919716229,0.0287538205091739,,,
1.27876710891724,0,-0.0727329564372249,-0.0217593785237525,0.0606447754078836,0.0548066562183686,0.0642522799077368,0.0287913937916033,,,
1.28076910972595,0,-0.0727277484807668,-0.0217618148638981,0.0606149805325246,0.0547552919096103,0.0642513634862141,0.0288115997685909,,,
1.28277015686035,0,-0.0727342751901478,-0.0217456769044014,0.0605901924479237,0.0547088673363766,0.0642612876607523,0.0288335938851349,,,
1.28477001190186,0,-0.072727904942978,-0.0217297177588603,0.0606038270120415,0.0547031899932849,0.064260393590974,0.0288620253040821,,,
1.28677296638489,0,-0.0727207747364968,-0.0217344786804293,0.060618579163382,0.0547044863944633,0.0642534421984484,0.0288799514031352,,,
1.28877305984497,0,-0.0727140021579268,-0.0217499460875924,0.0606443283729945,0.054712913002123,0.0642526151839036,0.0288782973740455,,,
1.290776014328,0,-0.0727107611549808,-0.0217518683376155,0.0606567112394227,0.0547375446245127,0.0642496647536355,0.0288660262663396,,,
1.29277610778809,0,-0.0727252450853878,-0.0217634018377545,0.0606493575154969,0.0547709604824734,0.0642353596371841,0.0288470943387859,,,
1.29477715492249,0,-0.0727446911030639,-0.0217761646838384,0.0606901047456389,0.0548243364482327,0.0642310010470153,0.0288364102049363,,,
1.29678010940552,0,-0.0727488708792771,-0.0217788245414286,0.0607946438544564,0.0548554500765145,0.0642307328260819,0.0288278494868099,,,
1.29877996444702,0,-0.0727295813238122,-0.0217697944366687,0.0608144251482994,0.0548375239774613,0.0642335267941388,0.0288353596729469,,,
1.30078315734863,0,-0.0727152315038719,-0.0217690121256128,0.0606877578124711,0.0547547107642544,0.0642306210673596,0.0288462226207522,,,
1.30278301239014,0,-0.0727206629777745,-0.021761367829009,0.0606319902100551,0.0546963056559927,0.0642313363231821,0.0288570855685574,,,
1.30478405952454,0,-0.0727250439196877,-0.0217579480121074,0.0606154275674138,0.0546877672896108,0.0642214792038774,0.0288532410685111,,,
1.30678606033325,0,-0.0727165502567947,-0.0217473979887245,0.0606060398347425,0.0547037264351519,0.0642155783433412,0.0288550962633009,,,
1.30878710746765,0,-0.0727271226319221,-0.0217317517676058,0.0606013906718958,0.0546907624233678,0.0642088728200046,0.0288524811091997,,,
1.31078910827637,0,-0.0727155220765498,-0.0217223640349345,0.0605820340611975,0.0546749597400379,0.0642002003431559,0.0288452167922517,,,
1.31279015541077,0,-0.0727042120938554,-0.0217399325060764,0.060530513290228,0.0547313978947875,0.0641916843285184,0.0288515870394214,,,
1.31479001045227,0,-0.0727205288673078,-0.0217369373723194,0.0604534891788351,0.0547984978316424,0.0642037766222688,0.0288824547985142,,,
1.3167929649353,0,-0.0727243957190985,-0.0217241968779799,0.0603703853929502,0.0548076843986135,0.0642092304479158,0.0288837735514371,,,
1.31879305839539,0,-0.0727542800014353,-0.0217279743227928,0.0602498871385917,0.0546970879670486,0.0641832353691143,0.0288574208447243,,,
1.32079601287842,0,-0.0728167307754434,-0.0217340316455402,0.0601372343465369,0.054626411751081,0.0641634987787603,0.0288462896759855,,,
1.3227961063385,0,-0.072820441165023,-0.0217228557733125,0.0600812432266764,0.0546318879284725,0.0641810001946688,0.028859074873814,,,
1.3247971534729,0,-0.0728077677259168,-0.0217149656075198,0.0600096058856971,0.054675160905738,0.064177625081256,0.0288622711732711,,,
1.32680010795593,0,-0.0727515307368673,-0.0217169772645208,0.0600323376098082,0.0546974679467044,0.0641380848453146,0.0288623382285044,,,
1.32879996299744,0,-0.0726656329829255,-0.0217071648487049,0.0601258126051203,0.0547259664208849,0.0641002656936962,0.0288634334639828,,,
1.33080315589905,0,-0.0726457622821048,-0.0216844778280828,0.0602199805045105,0.054833433608226,0.0640897156703133,0.0288311575449893,,,
1.33280301094055,0,-0.0726303619301751,-0.021669368048831,0.0602880862698658,0.0548832332948724,0.0641020091297637,0.0288176347395938,,,
1.33480405807495,0,-0.0726039645199733,-0.0216627072289833,0.0603221279766712,0.0549190631412343,0.064128875926599,0.0288419534375612,,,
1.33680605888367,0,-0.0725785058830387,-0.0216643836098175,0.0603535545293754,0.0549629619673445,0.0641488583861421,0.0288725082722316,,,
1.33880710601807,0,-0.0725635302142537,-0.0216540124003902,0.0603731123057738,0.055013253392369,0.0641477407989193,0.0288947929614536,,,
1.34080910682678,0,-0.0725718450631911,-0.0216533194963121,0.0603430939129703,0.0550636565761157,0.0641282277260098,0.0288916413654854,,,
1.34281015396118,0,-0.0725780364964052,-0.021661120255127,0.0602939647786575,0.055116250230819,0.0641179682753048,0.0288860310776271,,,
1.34481000900269,0,-0.0725752425283483,-0.0216660823423961,0.0602858957989092,0.0551764881821261,0.0641221256997735,0.0288917531242076,,,
1.34681296348572,0,-0.0725730967608806,-0.0216704632843093,0.0602843982320307,0.0552004939556711,0.064122148051518,0.0288977210399772,,,
1.3488130569458,0,-0.0725679782114003,-0.021674866577967,0.0602533293072378,0.05520976992962,0.0641208292985951,0.0288934518567862,,,
1.35081601142883,0,-0.0725560647316056,-0.0216709550226873,0.0602385995076417,0.0552381342933338,0.0641147719758477,0.0288881321416059,,,
1.35281610488892,0,-0.0725364398999739,-0.021643596487474,0.0602288094435703,0.0552770039769416,0.0641190188072942,0.0288487483678756,,,
1.35481715202332,0,-0.0725334671179613,-0.0216266315134324,0.0602253896266686,0.0552895209538366,0.0641165601154041,0.0288063918121328,,,
1.35681915283203,0,-0.0725507897199142,-0.0216472398218202,0.0602403652954537,0.0552688455902154,0.0640981199262285,0.0287607495499551,,,
1.35881996154785,0,-0.0725751978248594,-0.0216653000313401,0.060324474909839,0.0551979235050587,0.0640867652400452,0.0287252326280156,,,
1.36082005500793,0,-0.0726254892498838,-0.0216631095603835,0.0603962016577961,0.0550907021869066,0.0640853123766556,0.0287045125609055,,,
1.36282300949097,0,-0.0727138903992045,-0.0216042797689771,0.0604062375910565,0.0551103493702828,0.0640830324987212,0.0286861394269633,,,
1.36482310295105,0,-0.0727883887634741,-0.0215475286898051,0.0604273823413113,0.0553122973814365,0.0640769304724849,0.0286677886447655,,,
1.36682605743408,0,-0.0728104499352515,-0.0215181584975908,0.0604370606466604,0.0554079181442163,0.0640829430917434,0.0286816243745833,,,
1.36882710456848,0,-0.0728114781154964,-0.0214796240901499,0.0604695824348429,0.0553897461759741,0.0641072841414552,0.0287220363285585,,,
1.37082695960999,0,-0.0727979329583565,-0.0214354793948507,0.0604849157315392,0.0554302251851827,0.0641353802842355,0.0287662704308355,,,
1.37264394760132,0,-0.07277768227788,-0.021401281225834,0.0604642180161736,0.0555045894389855,0.0641494618832424,0.0287814696170651,,,
1.37464714050293,0,-0.0727629971817729,-0.0213831316093363,0.0604717729057995,0.0555408663202365,0.0641632082060824,0.0287847776752445,,,
1.37664699554443,0,-0.0727566939898365,-0.0213684688649737,0.0604773831936578,0.0555532044831758,0.0641934277645859,0.028803307271398,,,
1.37864995002747,0,-0.0727415395070957,-0.0213473688182078,0.0604177263877066,0.0555376923725238,0.0642205404306102,0.0288364549084252,,,
1.38065004348755,0,-0.0726685834131936,-0.0213422279169831,0.0603205186510704,0.0555241472153839,0.064214147831696,0.0288426016381504,,,
1.38265109062195,0,-0.0725978848454815,-0.0213326613703562,0.0603141931073896,0.0555492482244072,0.0642118679537616,0.0288469825800637,,,
1.38465309143066,0,-0.072558098740351,-0.0213103990328788,0.0603478324827948,0.0555811441637449,0.0642268659742911,0.0288667862256511,,,
1.38665413856506,0,-0.072537378673241,-0.0212964962478276,0.0603656691748702,0.0555899283993159,0.0642177017590644,0.0288783644292789,,,
1.38865613937378,0,-0.0725407984901426,-0.0213081415066888,0.0602830794791078,0.0555762938351981,0.064175166389366,0.0288779397461343,,,
1.3906569480896,0,-0.0725393232750086,-0.0213144894021141,0.0602598336648743,0.0556024006727219,0.0641003327489296,0.0288841758828373,,,
1.39266014099121,0,-0.0725293320452371,-0.0213028441432529,0.0604095232974915,0.0556650749641746,0.0640408324051896,0.0289013196708345,,,
1.39465999603271,0,-0.0725166809578754,-0.0212906624425247,0.0606268493088304,0.0557025364878817,0.0640239791898703,0.0289197151565212,,,
1.3966600894928,0,-0.0725116518153729,-0.0212878908262123,0.0606936810247518,0.0557312584795068,0.0640126692071759,0.0289272923978916,,,
1.39866304397583,0,-0.0725008112193121,-0.021287041459923,0.060714557554073,0.0557591758083315,0.0640023203494931,0.0289291028891924,,,
1.40066313743591,0,-0.0724974808093883,-0.0212896789657687,0.0606995371817991,0.0557577452966863,0.0639970900412905,0.0289299299037373,,,
1.40266609191895,0,-0.0725065779693816,-0.0212876002535343,0.0606793759083004,0.0557415626337007,0.0639979170558354,0.0289275159153361,,,
1.40466594696045,0,-0.0725151163357635,-0.0212803582883308,0.0606719104256523,0.055743641345935,0.0639971794482684,0.0289321203746939,,,
1.40666913986206,0,-0.0725508344234031,-0.0212868402942229,0.0607240123419776,0.0557105607641412,0.0639532135669248,0.0289215479995666,,,
1.40866899490356,0,-0.0725315448679381,-0.0212625215962555,0.06094612162663,0.0558296061551101,0.0639659093577754,0.0289435868195995,,,
1.41067004203796,0,-0.0724385839627485,-0.0211765120835915,0.0611758528561417,0.0560655064660915,0.0640684591613363,0.0290332173148653,,,
1.412672996521,0,-0.072371104046238,-0.0211125637427048,0.0612895561801858,0.0561936043135648,0.0641380848453146,0.0290947069638618,,,
1.41467308998108,0,-0.0723126095309984,-0.0210692907654394,0.0613318680324397,0.0562837041954642,0.0641732888428317,0.0291270052345997,,,
1.41667604446411,0,-0.0721829694131576,-0.0210530186954759,0.0613470225151804,0.0563454620653942,0.0641793238138346,0.0291309614933683,,,
1.41867613792419,0,-0.0720814254380972,-0.0210278282794748,0.0613799689865075,0.0563711889232622,0.0641761945696109,0.0291435678772411,,,
1.4206759929657,0,-0.0720431816033341,-0.0210046942239635,0.061408512164177,0.0563942335717956,0.0642083810816265,0.0291725804415441,,,
1.42267894744873,0,-0.0720046024924043,-0.020993227779058,0.06141249077469,0.0564200274848971,0.0642485471664127,0.0291948874825105,,,
1.42467999458313,0,-0.0719831448177272,-0.020998480439005,0.0613953022832039,0.0564464472468433,0.0642521681490145,0.0291919594039869,,,
1.42668199539185,0,-0.0719874140009182,-0.0210201839828711,0.0613617076112876,0.0564251013308884,0.0642253237039237,0.0291734521595779,,,
1.42868304252625,0,-0.0719868999107957,-0.0210292811428644,0.0612393988656281,0.0563975192782306,0.0642085598955822,0.0291637515024843,,,
1.43068599700928,0,-0.071985245881706,-0.0210254142910736,0.0611006839395385,0.0563886009321929,0.0641978757617326,0.0291634162263174,,,
1.43268609046936,0,-0.071972237166433,-0.0210125843897562,0.0610471738633125,0.0563957534904186,0.0641951041454201,0.0291763578863571,,,
1.43468594551086,0,-0.0719615977360723,-0.0209881539330666,0.0610139591710519,0.0563942112200512,0.0641968475814876,0.0291836445550495,,,
1.43668913841248,0,-0.071956725055781,-0.0209704066479691,0.0609768329235116,0.0563920878043279,0.0642064141281145,0.0291881596074295,,,
1.43868899345398,0,-0.0719865869863733,-0.0209650645810443,0.060910872925624,0.0563836835484127,0.0642056988722919,0.0291980614302232,,,
1.44069194793701,0,-0.0720168736001102,-0.020967210348512,0.0608368215962436,0.0563615776731464,0.0641896056162841,0.0292105337036292,,,
1.44269204139709,0,-0.0720196675681672,-0.020965690429889,0.0608104018342974,0.0563450820857384,0.0641816260435135,0.0292137970583197,,,
1.44469499588013,0,-0.0720186393879222,-0.0209627847031098,0.0607720015373232,0.0563378624722794,0.0641885774360391,0.0292120759739966,,,
1.44669508934021,0,-0.0720241826205471,-0.0209634776071879,0.0607624573424408,0.0563356496495783,0.0641858952267045,0.0292101984274624,,,
1.44869804382324,0,-0.0720260154635925,-0.020960437769942,0.0607743931739799,0.0563081346521538,0.0641788767789455,0.0291983743546455,,,
1.45069909095764,0,-0.0720349561613746,-0.0209702501857579,0.0608154756802888,0.0562471143897908,0.0641685949764961,0.0291723345723551,,,
1.45269894599915,0,-0.0720223274257573,-0.0209617565228649,0.060893349157971,0.0561718337144653,0.0641847105842484,0.0291669030984525,,,
1.45470213890076,0,-0.0720200251960784,-0.0209365884586082,0.0609599350047034,0.0561260796935653,0.0642127396717953,0.0291691606246424,,,
1.45670199394226,0,-0.0720641698913777,-0.0209250549584693,0.0609744636385994,0.0560826726058331,0.0642027260902794,0.0291648020344737,,,
1.45870494842529,0,-0.0720834147433537,-0.0209268878015146,0.0609256250769645,0.0560357786459659,0.0641807096219909,0.0291674842438083,,,
1.46070504188538,0,-0.0720917966475244,-0.0209228868392571,0.0608743725269285,0.0560220546748703,0.0641356932086579,0.0291840915899386,,,
1.46270608901978,0,-0.0721041348104638,-0.0209124932780854,0.0608285738025396,0.0560186795614576,0.064065396972346,0.0291882713661517,,,
1.46470808982849,0,-0.0720999326825062,-0.0208943660133321,0.060775331947247,0.0560130692735993,0.0640352444690757,0.0291887854562742,,,
1.46670913696289,0,-0.072097026955727,-0.0208871463998731,0.060698307835854,0.0560009546281045,0.0640161784310554,0.0291870420202067,,,
1.46871113777161,0,-0.072098993909239,-0.0208831230858711,0.0605973003026605,0.0560104094160091,0.0639955254191787,0.0291809846974593,,,
1.47071194648743,0,-0.0720957976097819,-0.0208797479724584,0.0604621393039393,0.0560181207678462,0.063978605148626,0.0291774084183465,,,
1.47271513938904,0,-0.0720802631473855,-0.0208648393589067,0.0603610647155124,0.0560406513262572,0.0639810191370272,0.0291937475435433,,,
1.47471499443054,0,-0.0720469813998915,-0.0208278695735776,0.0603634787039135,0.0561463527257863,0.0640040637855606,0.0292206143403786,,,
1.47671794891357,0,-0.072016225399521,-0.0207900504219592,0.0604312044896131,0.0562101446044617,0.0640212746287912,0.0292357241196304,,,
1.47871804237366,0,-0.0720208298588788,-0.0207717443432503,0.0604964715834226,0.0561925537815754,0.0640162454862887,0.0292210613752677,,,
1.48071813583374,0,-0.072035514954986,-0.0207801485991655,0.0605502275288376,0.0561407200861836,0.0639966653581459,0.0291570906826366,,,
1.48272109031677,0,-0.0720476519522252,-0.0207942972534057,0.0606575382539676,0.0560860924227348,0.0639788733695595,0.0290455778295491,,,
1.48472094535828,0,-0.0720387783096764,-0.0207897374975368,0.0608611849976999,0.0560404054570681,0.0639839472155508,0.0289942805760241,,,
1.48672413825989,0,-0.0720196228646783,-0.0207807297445213,0.061051912433137,0.0560210264946254,0.0639977382418797,0.0290042941575401,,,
1.48872399330139,0,-0.0720121126785413,-0.0207750971049186,0.061139933602802,0.0560316882767306,0.0640028791431045,0.0290264447362953,,,
1.49072694778442,0,-0.0720230873850688,-0.0207728395787286,0.061189710937704,0.05605100018394,0.0639895351516646,0.0290406604457689,,,
1.49272799491882,0,-0.0720318716206398,-0.0207678551397151,0.0612135155455489,0.0560678086957703,0.0639682339391987,0.029045086091171,,,
1.49472808837891,0,-0.072038755957932,-0.0207617978169677,0.0612123309030927,0.0560979164955516,0.0639545770233365,0.0290460248644382,,,
1.49673104286194,0,-0.0720397617864325,-0.0207519630494074,0.0612401364731951,0.0561253420859983,0.0639607684565506,0.0290476788935279,,,
1.49873113632202,0,-0.07203227395204,-0.0207369426771334,0.0612726359096331,0.0561378143594044,0.0639772193404698,0.0290522162976523,,,
1.50073409080505,0,-0.0720313128270284,-0.0207378814504005,0.0612461714441981,0.0561272643360215,0.0639732407299567,0.0290481706319059,,,
1.50273394584656,0,-0.0720237132339136,-0.0207328523078981,0.0612218974497196,0.0561291195308113,0.0639603661251505,0.0290500258266957,,,
1.50473713874817,0,-0.0720224168327352,-0.0207214976217148,0.0611918343534272,0.0561304606354786,0.0639484749971002,0.0290417109777583,,,
1.50673699378967,0,-0.0720298823153832,-0.0207193742059915,0.0612067653187234,0.0561087570916125,0.0639467539127772,0.0290353407305885,,,
1.50873994827271,0,-0.072024517896714,-0.0207241798310494,0.0612461937959425,0.0560973800536847,0.0639575721570935,0.0290286352072519,,,
1.51074004173279,0,-0.0720103245389848,-0.0207265714677061,0.0611647887426363,0.056107751263112,0.0639706926310888,0.0290166993757128,,,
1.51274108886719,0,-0.0719826530793492,-0.0207247609764053,0.061038166110297,0.0561161331672827,0.0639642329769412,0.0290023495557725,,,
1.5147430896759,0,-0.0718613725139347,-0.0207334558049984,0.060912102271569,0.0561013810159422,0.0639334546248263,0.0289806907153953,,,
1.5167441368103,0,-0.0717782240245609,-0.0207382390783118,0.060846119921937,0.0560862041814571,0.063909337092559,0.0289678384623335,,,
1.51874613761902,0,-0.0717627789691423,-0.0207328746596425,0.0608372462793882,0.0560955248588949,0.0639048890954124,0.0289550309127606,,,
1.52074694633484,0,-0.0717323582449386,-0.0207106123221651,0.060841359000368,0.0561096511613907,0.0639179425141743,0.0289559696860277,,,
1.52275013923645,0,-0.0717113029016617,-0.0207054937726848,0.0609000546813076,0.0561080641875344,0.0639286937032573,0.0289556567616054,,,
1.52474999427795,0,-0.0717150579947302,-0.0207176531216685,0.0609647853332502,0.0561143003242374,0.0639194177293083,0.028944346778911,,,
1.52675294876099,0,-0.0716937120787754,-0.0207057843453627,0.0609958766097875,0.0561574391910361,0.0639225469735321,0.028949062996991,,,
1.52875304222107,0,-0.0716789375756905,-0.0206977377173588,0.061050884252892,0.0561993934153787,0.063922099938643,0.0289530416075041,,,
1.53075313568115,0,-0.0716619502499044,-0.0206853101474416,0.0611175818583467,0.0562338598053288,0.0639390425609401,0.0289736275641474,,,
1.53275609016418,0,-0.0716547753399343,-0.0206814656473953,0.061087161134143,0.0562221921947232,0.0639442952208871,0.0289857422096422,,,
1.53475594520569,0,-0.0716555800027347,-0.0206818679787955,0.0610637141542094,0.0561803497291028,0.0639414118458524,0.0289807354188842,,,
1.5367591381073,0,-0.0716585974882361,-0.0206845501881302,0.0611342562597103,0.0561280466470774,0.0639297889387356,0.0289542709534491,,,
1.5387589931488,0,-0.0716782223198679,-0.0207032809499837,0.0613530351344389,0.0560718320097723,0.0639064537175243,0.0287668739279358,,,
1.54076194763184,0,-0.0716775517675342,-0.0206861818654754,0.0615876837477307,0.0560550011461975,0.0639199765229197,0.0286511365951462,,,
1.54276204109192,0,-0.0716741990058659,-0.0206656853158099,0.0617179944179051,0.0560641206579352,0.0639441834621648,0.0287561450905973,,,
1.54476308822632,0,-0.0716676052412516,-0.0206647912460317,0.0618064402707148,0.0560818679430327,0.0639680774769875,0.0288616006209374,,,
1.54676604270935,0,-0.0716505732119767,-0.0206794316386499,0.0618772058936603,0.0561354674262366,0.0639689938985102,0.0288886238799839,,,
1.54876613616943,0,-0.071583383868144,-0.0206942955487127,0.0619046985393403,0.0561567686387025,0.0639543311541475,0.0288875956997389,,,
1.55076909065247,0,-0.0715604956818218,-0.0207124004617215,0.0619173943301909,0.0561348192256474,0.063929855993969,0.0288774703595007,,,
1.55276894569397,0,-0.0715630661324341,-0.0207232187060378,0.0619614272667679,0.0561287395511555,0.063917339017074,0.028881560728736,,,
1.55477213859558,0,-0.071550884431706,-0.0207094723831978,0.0620022415521433,0.0561462633188085,0.0639262797148561,0.0289042253976137,,,
1.55677199363709,0,-0.0715556677050194,-0.0206981847522479,0.0619679316244044,0.056145257490308,0.0639218317177095,0.0289181728861538,,,
1.55877208709717,0,-0.0715603168678661,-0.0206853548509306,0.0619411765862914,0.0561433575920293,0.06391832249383,0.0289270465287026,,,
1.5607750415802,0,-0.0715561817951419,-0.0206829408625294,0.0619321017780425,0.0561580873916253,0.0639209599996757,0.0289343555491394,,,
1.5627760887146,0,-0.0715484480915604,-0.0206885735021321,0.0619394331502239,0.0561843283396159,0.0639156179327509,0.0289331932584278,,,
1.56477808952332,0,-0.0715346794169759,-0.0206779117200269,0.0618732049314028,0.0562144808428861,0.0639151708978618,0.0289456878835783,,,
1.56677913665771,0,-0.0715394850420338,-0.0206693957053895,0.0617998688578449,0.0562027238253026,0.063897848295909,0.0289480124650016,,,
1.56877899169922,0,-0.0715294044052845,-0.0206604997110963,0.0618603303265965,0.0562018744590133,0.0639087335954587,0.0289560590930056,,,
1.57078194618225,0,-0.0715257387191938,-0.0206620419814637,0.0618528201404596,0.0562025673630914,0.063920825889209,0.0289628987268089,,,
1.57278203964233,0,-0.0715202848935467,-0.0206561858244164,0.061789072965273,0.0562157325405756,0.0639173613688184,0.0289723982182024,,,
1.57478499412537,0,-0.0715286220942285,-0.0206574151703614,0.0618182643435317,0.0562347091716181,0.0639052243715792,0.0289632563547202,,,
1.57678508758545,0,-0.0715254928500048,-0.020662891347753,0.0618622749283642,0.0562466673549017,0.0638939367406293,0.0289479454097683,,,
1.57878804206848,0,-0.0715053539282505,-0.020662354905886,0.0618501379311249,0.0562443874769673,0.0638905169237276,0.0289514993371367,,,
1.58078813552856,0,-0.0715168203731561,-0.0206575492808282,0.0618238969831344,0.0562290318285265,0.0638962389703082,0.0289560367412611,,,
1.58278894424438,0,-0.0715376969024774,-0.0206497932255022,0.0618256627709464,0.0562146149533528,0.0639202000403643,0.0289477665958126,,,
1.5847909450531,0,-0.0715446259432585,-0.0206424842050653,0.0618773847076159,0.0561879716739621,0.0639374555870838,0.0289290134822146,,,
1.5867919921875,0,-0.0715375404402662,-0.020633141175883,0.0618979706642593,0.0561439610891296,0.0639502407849122,0.0289158483047305,,,
1.58879494667053,0,-0.0715406920362344,-0.020640360789342,0.0619283913884629,0.0561124451294476,0.0639513136686461,0.0288377066061147,,,
1.59079504013062,0,-0.0715346123617425,-0.0206296543037479,0.0619742795198297,0.0561131156817813,0.063956074590215,0.0286349092286717,,,
1.59279799461365,0,-0.0715186085127125,-0.0206071460970814,0.0619814097263109,0.0561421729495732,0.0639557393140482,0.0283184085271845,,,
1.59479808807373,0,-0.0715156357307,-0.0205966407771874,0.0618801563239284,0.0561584897230255,0.0639504643023567,0.0281975749966592,,,
1.59680104255676,0,-0.0715114783062313,-0.0205908069718846,0.0616942568652936,0.0561630718306389,0.0639505313575901,0.028157900650251,,,
1.59880113601685,0,-0.0715176697394454,-0.0205871636375384,0.0615807100034606,0.056166513999285,0.0639444069796094,0.0281380299494302,,,
1.60080099105835,0,-0.0715554441875749,-0.0205839673380813,0.0615073292264139,0.056176237008123,0.0639436693720423,0.0281199697399103,,,
1.60280394554138,0,-0.0715800311064757,-0.02057437843971,0.0614893584238718,0.0561923079123864,0.063948363238378,0.0281009260536344,,,
1.60480403900146,0,-0.0715907822955587,-0.020568343468707,0.0614522098245871,0.0561961077089438,0.0639446975522873,0.0280694324456969,,,
1.6068069934845,0,-0.0715955655688722,-0.0205609450412923,0.0614143236177353,0.0562004215956237,0.0639437587790202,0.028051126366988,,,
1.6088080406189,0,-0.0715995441793852,-0.0205496797620868,0.0613935811988808,0.0561908774007413,0.0639489220319893,0.0280240807561971,,,
1.61081004142761,0,-0.0716615032150153,-0.0205402249741822,0.0613704247916251,0.0561868764384838,0.0639408307004965,0.0279933918110599,,,
1.61281108856201,0,-0.0717142086284409,-0.0205459693725073,0.061440765731426,0.056182026109937,0.0639189483426748,0.0279644239502459,,,
1.61481094360352,0,-0.0717164438028865,-0.0205466622765854,0.0615597440671616,0.0561972923513999,0.0639244468718108,0.0279324386039303,,,
1.61681413650513,0,-0.0717072795876598,-0.0205374980613587,0.0616039334659497,0.056223265078457,0.0639339910666932,0.0279017049553043,,,
1.61881399154663,0,-0.0716901805031515,-0.0205266574652979,0.0616037770037385,0.0562629394248652,0.0639231951741213,0.0278502512395681,,,
1.62081694602966,0,-0.0716046180253766,-0.0205200637006836,0.061542287354742,0.0562879286751662,0.0639207364822312,0.0278084311256923,,,
1.62281703948975,0,-0.0715465034897928,-0.0205231705931628,0.0615145264881285,0.0562893815385558,0.0639192612670971,0.0277703884566293,,,
1.62481999397278,0,-0.0715317289867078,-0.0205233047036296,0.0615440307908095,0.0562972270008596,0.0639108570111819,0.0277400794911479,,,
1.62682008743286,0,-0.0715260516436162,-0.0205173591396045,0.0615514068664797,0.0562875710472549,0.0639008210779215,0.0277212146188277,,,
1.62882113456726,0,-0.0715205754662246,-0.0205154592413258,0.0615201367759868,0.0562659345586222,0.0638934226505068,0.027698013508083,,,
1.63082313537598,0,-0.0715216707017029,-0.0205226341512959,0.0614700465166624,0.0562474496659576,0.0638730155078191,0.0276751700252497,,,
1.6328239440918,0,-0.0715197931551687,-0.0205241317181744,0.0613911001552463,0.0562254555494136,0.0638555364436551,0.027665022333267,,,
1.63482713699341,0,-0.0715237047104483,-0.0205290938054435,0.0612533687059127,0.0562043778543923,0.0638293849026424,0.0276573556849188,,,
1.63682699203491,0,-0.0715032081607828,-0.020513849915725,0.0609842537026708,0.0562076859125717,0.0638279320392528,0.0276510524929824,,,
1.638827085495,0,-0.0714972849485022,-0.0205094466220673,0.0608138440029435,0.0562072835811715,0.0638191031001929,0.0276353615683748,,,
1.64083003997803,0,-0.0714964579339573,-0.0205037692789756,0.0607529578510473,0.0562217004563451,0.0638064073093423,0.0276318299927509,,,
1.64283013343811,0,-0.0714964355822129,-0.0204964602585388,0.060767084153543,0.0562151290434753,0.0637977124807492,0.0276370155974645,,,
1.64483308792114,0,-0.0714912276257548,-0.0204822892525541,0.060781322214761,0.0562211416627338,0.0637891517626228,0.0276543605511618,,,
1.64683294296265,0,-0.0714820187070392,-0.0204639608221007,0.0607701016390445,0.0562384866164311,0.0637914539923017,0.0276387813852765,,,
1.64883613586426,0,-0.0714807446576052,-0.02045557891793,0.0607599986505507,0.0562474049624687,0.0637824685910307,0.0276140827076534,,,
1.65083599090576,0,-0.0714743967621799,-0.0204402679729781,0.0607118753447384,0.05628428534082,0.0637865366085215,0.0276212576176235,,,
1.65283608436584,0,-0.0714730780092571,-0.0204341659467418,0.0605682430348686,0.0562888674484333,0.0637878106579555,0.0276123169198414,,,
1.65483903884888,0,-0.0714733238784461,-0.0204304779089067,0.0604228896406757,0.0562805749512404,0.063784793172454,0.027600515198769,,,
1.65684008598328,0,-0.0714764978261587,-0.0204321542897408,0.0603182834766249,0.0562812678553185,0.0637783782217953,0.0275905239689975,,,
1.65884208679199,0,-0.07147459792788,-0.020422833612303,0.0602535304729379,0.0562905885327564,0.0637800098991406,0.0275968271609339,,,
1.66084313392639,0,-0.0714467253025443,-0.0203871825798968,0.0602139455335075,0.0563291676436863,0.0638059379227087,0.0276278290304934,,,
1.6628429889679,0,-0.0714372258111508,-0.0203798512077154,0.0601952371233984,0.0563438527397934,0.0638011099459064,0.0276371050044423,,,
1.66484594345093,0,-0.0714397739100187,-0.0203862885101185,0.0601815578557918,0.0563356720013227,0.0637903811085678,0.0276231351641578,,,
1.66684603691101,0,-0.0714363987966059,-0.0203825334170501,0.0601787862394793,0.0563274242076187,0.0637886600242448,0.0276155579227874,,,
1.66884899139404,0,-0.0714554871863708,-0.0203592876028165,0.0601653751928061,0.056339561204858,0.0637873859748108,0.0276119369401857,,,
1.67084908485413,0,-0.071495362698479,-0.0203380757973284,0.0601904091465961,0.0563278265390189,0.0637708903874028,0.0276018563034363,,,
1.67285013198853,0,-0.0715143393295216,-0.0203292692100131,0.0603193340086143,0.0562934942595356,0.0637592004250527,0.027582499692738,,,
1.67485213279724,0,-0.0715090196143412,-0.0203311467565473,0.0603529510322751,0.056273780020926,0.063760049791342,0.0275547388261245,,,
1.67685294151306,0,-0.0715089302073634,-0.0203374946519726,0.0603458878810272,0.0562608607126308,0.0637755171985051,0.0275176125785843,,,
1.67885613441467,0,-0.0715561817951419,-0.0203426355531973,0.06036772553536,0.0562636099771988,0.0637787582014511,0.0274893823253372,,,
1.68085598945618,0,-0.0716424371769949,-0.0203436860851867,0.060406014073612,0.0562793456052954,0.0637605638814645,0.0274606379819677,,,
1.68285608291626,0,-0.0716875429973057,-0.0203562701173151,0.0603938323728838,0.0562804184890292,0.0637223871019348,0.027446958714361,,,
1.68485903739929,0,-0.0718269284757291,-0.0204854184967778,0.0602492612897469,0.0561563216038134,0.0635638461785133,0.0273400279688868,,,
1.68686008453369,0,-0.0718649040895586,-0.0205864260299714,0.0601180565497943,0.0560468427594713,0.063463486845909,0.0272830533722703,,,
1.68886208534241,0,-0.0718033026818398,-0.0206279332194249,0.0600980740902512,0.0560108788026427,0.0634502993166804,0.0272970008608104,,,
1.69086313247681,0,-0.0717901151526112,-0.0206416124870315,0.0601228398231077,0.0559928632966117,0.0634430349997324,0.0273051592475366,,,
1.69286298751831,0,-0.0718094941150539,-0.0206555152720827,0.0601530593816113,0.055987230657009,0.0634118096127283,0.027286182616494,,,
1.69486594200134,0,-0.0718135174290559,-0.0206618855192525,0.0602248531848017,0.0560231722620931,0.0633848310571708,0.0272755655378777,,,
1.69686603546143,0,-0.0718127351179999,-0.0206723908391465,0.060436010114671,0.0559767476888594,0.0633737445919209,0.0273012476922569,,,
1.69886898994446,0,-0.071799435830049,-0.0206721449699575,0.060610040797,0.0559227682259999,0.0633919165601631,0.0273703816378572,,,
1.70086908340454,0,-0.0717901822078445,-0.0206599185657404,0.060692809306718,0.0558893523680392,0.0633925871124967,0.0274036410336067,,,
1.70287203788757,0,-0.0717953007573248,-0.0206574822255948,0.0607400608944965,0.055863178475282,0.0633703024232748,0.0274011823417166,,,
1.70487213134766,0,-0.0718019168736836,-0.0206618184640191,0.0607887876974091,0.0558497674286088,0.0633563996382236,0.0273648607569767,,,
1.70687294006348,0,-0.0718042638068514,-0.020659650344807,0.0608351452154094,0.0558357305330909,0.0633569360800905,0.0272682788691853,,,
1.70887613296509,0,-0.0718048449522072,-0.0206443170481106,0.0608469916399707,0.0558251134544746,0.0633554161614676,0.0272143888133036,,,
1.71087598800659,0,-0.0718010004521609,-0.0206242228298453,0.0608598438930325,0.0558601386380361,0.0633530468765553,0.0272179203889275,,,
1.71287894248962,0,-0.0717883940682881,-0.0206251839548569,0.0608584133813874,0.0559027187112234,0.0633587689231359,0.0272349971216914,,,
1.71487903594971,0,-0.0717803027367953,-0.0206369409724404,0.0608540994947075,0.0559298090255033,0.0633623004987598,0.0272625121191158,,,
1.71687912940979,0,-0.0717729713646139,-0.0206444511585773,0.0608406437445454,0.0559307701505149,0.0633651615220501,0.0272586229155806,,,
1.71888208389282,0,-0.0717607896638858,-0.0206372762486072,0.0608070043691402,0.0559308595574927,0.0633713976587531,0.0272508445085102,,,
1.72088193893433,0,-0.0717476244864016,-0.0206154385942744,0.0607906875956878,0.0559512890519248,0.0633790196036124,0.02726418849995,,,
1.72288513183594,0,-0.0717505972684142,-0.0206094706785048,0.0608038974766609,0.0559687234126,0.0633813218332913,0.0272685470901188,,,
1.72488594055176,0,-0.0717619743063419,-0.0206154609460188,0.0608270091804277,0.0559917904128779,0.0633833781937812,0.0272764372559115,,,
1.72688794136047,0,-0.0717668916901221,-0.0206160420913746,0.060856625241831,0.0560336775819871,0.0633841381530926,0.0272913905729521,,,
1.72888898849487,0,-0.0717714737977354,-0.0206135833994846,0.0608491374074384,0.0560520730676738,0.0633842499118149,0.0272881272182616,,,
1.73088908195496,0,-0.0717712502802909,-0.0206139633791403,0.0608067361482067,0.0560603655648667,0.0633855463129933,0.0272781583402346,,,
1.73289203643799,0,-0.0717700432860903,-0.0206159526843968,0.0608034951452607,0.0560424394658136,0.0633885190950059,0.0272772419187119,,,
1.73489212989807,0,-0.0717706467831906,-0.0206162656088192,0.0608552170819303,0.0560368068262108,0.0634099097144496,0.0272807734943358,,,
1.7368950843811,0,-0.0717453893119561,-0.0206086213122155,0.0609337387602018,0.0560241780905936,0.0634432808689214,0.0272902282822404,,,
1.73889493942261,0,-0.0716823126891032,-0.0206079731116263,0.0609609408332039,0.0559994123577371,0.0634508804620362,0.0273007336021344,,,
