Timestamp,Seq,AF3,AF4,Fp1,Fp2,AF7,AF8,Event,EventDate,EventDuration
0,0,0.0678398242997914,0.0516410904098857,0.108340045313841,0.0770242678551993,0.0790277441177063,0.0448510551275081,,,
0.00200295448303223,0,0.0677997699737275,0.0516122566595384,0.108297867572053,0.0769608336044352,0.0789911319602885,0.0448104867113217,,,
0.00400304794311523,0,0.0677467516358795,0.0515982421157649,0.108266172798416,0.076983654735524,0.0789267142327683,0.0447513439954929,,,
0.00600600242614746,0,0.0676718732919542,0.0515643121676817,0.108222989228128,0.0770404728699294,0.0788307134903328,0.0446684637270527,,,
0.00800609588623047,0,0.0676487615881874,0.0515511246384531,0.108214093233835,0.0771039741759269,0.0787934531323258,0.0446408593226503,,,
0.0100090503692627,0,0.0676446712189521,0.0515365960045571,0.108210047568088,0.0771259906442154,0.0787873064026006,0.0446355172557255,,,
0.0120091438293457,0,0.0676915875305638,0.051552152818698,0.108242301135337,0.0771162899871218,0.0788469185050629,0.0446897649395186,,,
0.0140120983123779,0,0.0677426836183886,0.05156766492935,0.108272520693841,0.0770601647567945,0.0789172817966082,0.044751053422815,,,
0.0160119533538818,0,0.0677835426072529,0.0515818135835902,0.108291944359773,0.0769933106891287,0.0789780561897822,0.0447991767286273,,,
0.0180151462554932,0,0.0677817097642076,0.0515760691852652,0.108281863723023,0.0769319998540878,0.078984873471841,0.0447986179350159,,,
0.0200181007385254,0,0.0677490985690473,0.0515727834788303,0.108262060077436,0.0769389065431245,0.0789420028259758,0.0447602399897861,,,
0.0220179557800293,0,0.0676703533733312,0.0515372442051463,0.1082100028646,0.0769855099303138,0.0788405035544042,0.0446753927678338,,,
0.0240211486816406,0,0.0676311484135566,0.0515188487194596,0.108194110774292,0.0770538168613692,0.0787844900827992,0.0446285882149444,,,
0.0260210037231445,0,0.0676174020907166,0.0515005873442396,0.108186645291644,0.0770911889780985,0.078760819585421,0.0446080693135344,,,
0.0280239582061768,0,0.0676676264605077,0.0515212850596053,0.108225202050829,0.0771075951585287,0.0788170118709817,0.0446552314943351,,,
0.0300240516662598,0,0.0677243551879353,0.0515425192168378,0.108261523635569,0.0770677196464204,0.0788917337526958,0.0447186657450993,,,
0.032027006149292,0,0.0677800780868623,0.0515677543363278,0.10829534182493,0.0770095827590922,0.078967394407677,0.0447863915307989,,,
0.034027099609375,0,0.0677884599910331,0.0515642674641928,0.108292592560362,0.0769359561128564,0.0789911319602885,0.044805301106608,,,
0.0360300540924072,0,0.0677483162579913,0.0515471683796845,0.108258573205301,0.0769052895194637,0.0789504517853799,0.0447674596032452,,,
0.0380330085754395,0,0.067668967565175,0.0515091257106216,0.108202917361607,0.0769335421244552,0.0788508077085981,0.0446785220120575,,,
0.0400331020355225,0,0.0676220065500744,0.0514892326580563,0.108177034041528,0.0770059617764904,0.0787816067077645,0.0446242072730311,,,
0.0420360565185547,0,0.0675953632706837,0.0514675514659347,0.10816094078552,0.0770512240590124,0.0787404571462223,0.0445912384499596,,,
0.0440361499786377,0,0.0676175809046723,0.0514712171520254,0.108177391669439,0.0770713853325111,0.0787637253122002,0.0446148195403599,,,
0.0460391044616699,0,0.0676527401987004,0.0514716194834256,0.108196167134782,0.0770314427651695,0.0788151343244474,0.0446578466484364,,,
0.0480389595031738,0,0.0677220753100008,0.0515059964663978,0.108245564490028,0.0769851075989136,0.078907111752881,0.0447396093296539,,,
0.0500421524047852,0,0.0677830955723638,0.0515437038592939,0.10829328546444,0.0769381018803241,0.0789842699747407,0.0448071563013978,,,
0.0520420074462891,0,0.067745745807379,0.0515205921555271,0.108258059115178,0.0768845471006092,0.0789478366312786,0.0447681525073233,,,
0.0540449619293213,0,0.0676696604692531,0.0514834659079869,0.108197776460383,0.0768910961617346,0.0788557250923783,0.0446868592127394,,,
0.0560450553894043,0,0.0676190114163174,0.0514672608932568,0.108169903835047,0.0769648569184371,0.0787880216584231,0.0446315386452125,,,
0.0580480098724365,0,0.0675785994623422,0.0514405952621216,0.108147775608036,0.0770187693260633,0.0787318964280959,0.0445852928859345,,,
0.0600481033325195,0,0.0675763195844078,0.0514270948084706,0.108146367448135,0.0770410763670297,0.0787250567942926,0.0445816495515882,,,
0.0620510578155518,0,0.0676370045706039,0.051454408640195,0.108188120506778,0.0770378800675726,0.078798862254484,0.0446476319012203,,,
0.064054012298584,0,0.0676988071440228,0.0514804931259743,0.108227906611908,0.0769896002995491,0.0788810496188461,0.044717034067754,,,
0.066054105758667,0,0.0677537700836384,0.0515115173472783,0.108262864740236,0.076936134926812,0.0789543186371706,0.0447861009581209,,,
0.0680570602416992,0,0.0677448740893452,0.0515043647890526,0.108248492568552,0.0768749358504934,0.0789545421546152,0.0447806918359628,,,
0.0700571537017822,0,0.0676797634577469,0.0514718430008701,0.108200838649373,0.0768612342311423,0.0788811613775684,0.0447082498321831,,,
0.0720601081848145,0,0.0676031193260097,0.0514360355062527,0.108155866939529,0.0769072117694869,0.0787860547049111,0.0446234249619752,,,
0.0740611553192139,0,0.0675662836511473,0.0514168130060211,0.108137426750353,0.0769742222993639,0.0787296836053948,0.0445789226387647,,,
0.0760631561279297,0,0.0675493186771057,0.0513958470697221,0.108123322799602,0.0770056265003236,0.0786999110817803,0.0445582919786324,,,
0.07806396484375,0,0.0675777277443084,0.0513997809767462,0.108139930145732,0.0770021172764441,0.0787345786374305,0.0445925572028824,,,
0.0800659656524658,0,0.0676743990390776,0.0514557944483512,0.10821226039079,0.0769891309129156,0.078852618199899,0.0447002255559237,,,
0.0820670127868652,0,0.0677379450485641,0.0514871315940775,0.108254862815721,0.0769379901216018,0.0789381136224405,0.0447718628969029,,,
0.0840699672698975,0,0.0677520042958265,0.0514922501435578,0.108254728705255,0.0768713148678917,0.0789675061663993,0.0447902360308452,,,
0.0860719680786133,0,0.0677041268592032,0.0514695407711912,0.10821532257978,0.0768400447773987,0.0789172147413748,0.0447411739517658,,,
0.0880730152130127,0,0.0676282873902663,0.05143511908473,0.108163757105322,0.0768709572399804,0.0788214375163838,0.044654292721068,,,
0.0900750160217285,0,0.0675908258665592,0.0514229820874908,0.108149899023759,0.0769512670578083,0.0787627194836997,0.0446093433629684,,,
0.0920760631561279,0,0.067564450808102,0.0514029325727144,0.108137314991631,0.076996909319986,0.0787259508640708,0.0445832365254446,,,
0.0940780639648438,0,0.0675747773140403,0.0513949977034328,0.108142724113789,0.0770023854973776,0.0787377749368876,0.0445964017029287,,,
0.0960791110992432,0,0.0676107636226134,0.0513967858429892,0.108162036020998,0.0769600959968681,0.0787882004723788,0.0446401440668278,,,
0.098081111907959,0,0.0676657936174623,0.0514164553781099,0.108194535457437,0.0769000815630056,0.078865090473305,0.0447023713233914,,,
0.100082159042358,0,0.0677227011588456,0.0514524640384274,0.108233203975344,0.0768522041263824,0.0789431204131985,0.0447698288881575,,,
0.102085113525391,0,0.0676799199199581,0.0514251278549585,0.108190802716112,0.0767932178727648,0.0789049883371578,0.0447273605736924,,,
0.104084968566895,0,0.0676022476079759,0.0513877333864848,0.108132889346229,0.0767981799600339,0.0788125415220906,0.0446444579535077,,,
0.106088161468506,0,0.0675492292701279,0.0513700978601096,0.108106201363349,0.0768673362573786,0.0787387807653881,0.044584287057434,,,
0.108091115951538,0,0.0675207978511808,0.0513537810866572,0.1080969253894,0.0769285800371862,0.0786967818375566,0.0445522570076295,,,
0.110090970993042,0,0.0675234353570265,0.0513446168714305,0.10810144044178,0.0769500824153522,0.0786955301398671,0.0445540227954415,,,
0.112094163894653,0,0.067560963935967,0.0513481707987989,0.108124574497291,0.0769240426330617,0.078746827393392,0.0445932054034716,,,
0.114094018936157,0,0.0676205313349404,0.0513687567554422,0.108161231358198,0.0768687444172793,0.078827584246109,0.0446617805554605,,,
0.116096973419189,0,0.0676970413562109,0.0514152707356537,0.108214026178602,0.0768246667772134,0.0789228473809776,0.044748795896625,,,
0.118097066879272,0,0.0677038362865253,0.0514225574043462,0.108212126280323,0.0767720060672767,0.0789370630904511,0.0447564178414843,,,
0.120100021362305,0,0.06762444289022,0.0513786809299804,0.108151463645871,0.0767504366338774,0.0788489748655528,0.0446746328085223,,,
0.122101068496704,0,0.0675566500492871,0.0513500259935887,0.108111431671552,0.0768032314542808,0.0787609313441433,0.0446032189849876,,,
0.12410306930542,0,0.0675425237467913,0.0513510988773225,0.108115231468109,0.0768866034610991,0.0787312929309956,0.0445829683045111,,,
0.126104116439819,0,0.0675108736766426,0.0513209240223079,0.108091538618986,0.0769071447142535,0.0786929149857658,0.0445494406878281,,,
0.128107070922852,0,0.0675513526858512,0.0513354973596927,0.108120528831545,0.0769086869846209,0.0787436757974238,0.0445987039326076,,,
0.130107164382935,0,0.0676066509016336,0.0513546528046909,0.108155442256384,0.0768643187718771,0.0788203199291611,0.0446614899827826,,,
0.132110118865967,0,0.067668721695986,0.0513849170666834,0.108196547114437,0.076810361660762,0.0789058153517026,0.0447323450127059,,,
0.134109973907471,0,0.0677031433824472,0.051408118177428,0.108216998960614,0.0767609419537714,0.0789549668377598,0.0447699406468798,,,
0.136113166809082,0,0.0676477334079425,0.0513800220346477,0.10817368127986,0.0767290013109447,0.078893119560852,0.0447166540880983,,,
0.138113021850586,0,0.0675853496891677,0.0513565527029696,0.108135280982885,0.0767714025701764,0.0788104181063674,0.0446498223721769,,,
0.140115976333618,0,0.0675028494003832,0.051303601420355,0.108079200456047,0.0768165307422317,0.0787055660731275,0.0445561238594203,,,
0.142116069793701,0,0.0674462547834223,0.0512500019371512,0.10803577101657,0.0768326910534729,0.078638086156617,0.0444936283819232,,,
0.144119024276733,0,0.067491450010711,0.0512704537833278,0.1080729419676,0.0768575685450516,0.0786879528984967,0.0445380860016448,,,
0.146119117736816,0,0.0675406685520015,0.0512849153619904,0.108101127517358,0.0768220739748566,0.078752571791717,0.0445924901476491,,,
0.148122072219849,0,0.0675915858258707,0.0513030873302325,0.108127659038026,0.0767609866572603,0.0788240750222296,0.0446536445204788,,,
0.150125026702881,0,0.067655958849902,0.0513428287318741,0.10817593880605,0.0767164619823053,0.0789128114477171,0.0447260865242584,,,
0.152125120162964,0,0.0676178491256057,0.0513214604641748,0.108140265421899,0.0766631754235238,0.0788770039530997,0.0446883567796179,,,
0.154128074645996,0,0.0675371593281221,0.0512818978764889,0.108080988595604,0.0766686516009154,0.0787774716350402,0.0446018331768314,,,
0.156128168106079,0,0.0674902430165104,0.0512682633123712,0.108059508569182,0.0767419653227288,0.0787126292243754,0.0445487701354945,,,
0.158131122589111,0,0.0674384763763519,0.0512295500909746,0.108025176289699,0.0767830254772932,0.0786468703921879,0.0444912814487554,,,
0.160130977630615,0,0.0674342295449054,0.0512127862826331,0.108021197679186,0.0767997222304013,0.0786419306566633,0.0444851570707747,,,
0.162134170532227,0,0.0675070068248518,0.0512476550039834,0.108075445362979,0.0768022479775248,0.0787291695152723,0.0445632093624126,,,
0.16413402557373,0,0.0675590193341993,0.0512665645797926,0.108104972017404,0.0767469944652312,0.0788013880016074,0.044624542549198,,,
0.166136980056763,0,0.0676269909890879,0.0513079600105238,0.108152447122627,0.0767018886449204,0.0788908173311731,0.0447043382769034,,,
0.168140172958374,0,0.0676220959570522,0.0513062836296896,0.108143394666123,0.0766469927605382,0.0788955782527421,0.0447061040647154,,,
0.170140027999878,0,0.0675683400116372,0.0512826354840559,0.10810430146507,0.0766455846006375,0.0788340439002566,0.044647520142498,,,
0.17214298248291,0,0.0675059786446069,0.0512607084227453,0.108068203397775,0.0767071636566119,0.0787499119341269,0.0445788108800424,,,
0.174143075942993,0,0.0674586823533395,0.0512342216055657,0.108042208318974,0.0767692344509643,0.0786864106281293,0.0445281171236178,,,
0.176146030426025,0,0.0674443101816547,0.0512145073669562,0.108034876946792,0.076801130390302,0.0786676575145313,0.0445121579780767,,,
0.178147077560425,0,0.0674859738333194,0.051227851358396,0.108064694173896,0.0768044831519703,0.0787178818843224,0.0445589625309661,,,
0.180149078369141,0,0.0675302973425743,0.0512364120765224,0.10808749295324,0.0767494755088658,0.0787803326583305,0.0446108632815913,,,
0.18215012550354,0,0.0676072767504784,0.0512812943793886,0.108143640535312,0.076705844903689,0.0788790826653341,0.0446981244919449,,,
0.184152126312256,0,0.0676121494307696,0.0512752147048968,0.108137449102098,0.0766319276847753,0.0789019708516563,0.0447044500356257,,,
0.186153173446655,0,0.0675832709769334,0.0512681962571378,0.108114896191942,0.0766196342253249,0.0788685326419512,0.0446731352416438,,,
0.188155174255371,0,0.0674958086008797,0.0512265996607065,0.108051394885945,0.0766485573826501,0.0787569080301414,0.0445764639468746,,,
0.190158128738403,0,0.0674408233095197,0.0511985258696706,0.108020594182085,0.0767124386683033,0.0786832366804167,0.0445148625391558,,,
0.192157983779907,0,0.0673965445037537,0.051157845694762,0.107990709899749,0.0767399983692167,0.0786270220431116,0.0444678121170774,,,
0.194161176681519,0,0.0674116319312611,0.0511516095580589,0.107999829411486,0.0767447145872968,0.0786462221915987,0.0444847547393745,,,
0.196161031723022,0,0.0674800953245277,0.0511831031659965,0.108047170406243,0.076724598017287,0.0787322987594961,0.0445630752519459,,,
0.198163986206055,0,0.067540936772935,0.0512126074686775,0.108084274302038,0.0766705291474496,0.0788116027488235,0.044634265558036,,,
0.200165033340454,0,0.0675778618547752,0.0512310029543642,0.108104837906937,0.0766072960623856,0.078866856261117,0.0446808242417364,,,
0.20216703414917,0,0.0675479105172051,0.0512137250559002,0.108078708717669,0.0765643807130314,0.0788409952927822,0.0446495988547324,,,
0.204168081283569,0,0.0674683830104331,0.0511746095031034,0.108020013036729,0.0765761824341038,0.0787456874544248,0.0445642375426576,,,
0.206171035766602,0,0.0674160575766632,0.0511583150813955,0.107992855667216,0.0766474621471717,0.0786732901541341,0.0445053183442734,,,
0.208171129226685,0,0.0673604240847139,0.0511161149878639,0.107955729419676,0.0766851695400679,0.0786038656358559,0.044444722765055,,,
0.210174083709717,0,0.0673497846543532,0.0510893823014954,0.107945022934082,0.0766929926506272,0.078591303955472,0.0444284283433471,,,
0.2121741771698,0,0.0674017301084674,0.0511082024703267,0.107978505847276,0.0766779275748643,0.0786552969998475,0.0444868558033533,,,
0.214177131652832,0,0.0674636891440975,0.0511328340927165,0.10801690614425,0.0766271667632063,0.0787392501520217,0.0445563920803537,,,
0.216180086135864,0,0.0675474858340604,0.051184600732875,0.108077680537424,0.0765931250564009,0.0788432081154833,0.0446488388954209,,,
0.218180179595947,0,0.0675329124966755,0.0511725307908691,0.108059441513949,0.0765310095585596,0.078838380138681,0.0446362548632926,,,
0.220183134078979,0,0.0674696794116115,0.0511427582672546,0.108009887696491,0.0765254439741902,0.0787627641871887,0.044567500897348,,,
0.222182989120483,0,0.0674043452625686,0.0511187971971985,0.107969654556472,0.0765817703702176,0.0786744077413568,0.0444961094255578,,,
0.224186182022095,0,0.067361161692281,0.051094813775398,0.107946699314916,0.0766421647837358,0.0786157344121616,0.0444463991458892,,,
0.226186037063599,0,0.0673308527267996,0.0510629848912936,0.107923252334982,0.0766605602694226,0.0785779152605433,0.0444178112647308,,,
0.228188991546631,0,0.0673810100413573,0.0510825873711809,0.10796131735579,0.076666081150303,0.0786369238659053,0.0444723048177129,,,
0.230189085006714,0,0.0674598446440512,0.0511229769734117,0.10801936483614,0.076637560324378,0.0787387360618992,0.0445600577664444,,,
0.232192039489746,0,0.0675270339878838,0.0511601032209519,0.108065700002396,0.0765893699633324,0.0788279195222759,0.0446385794447159,,,
0.234194993972778,0,0.0675434848718029,0.0511656688053213,0.108070751496643,0.0765279026660803,0.0788572673627457,0.0446588524769369,,,
0.236195087432861,0,0.0675095549237198,0.05115607990695,0.108045404618431,0.0765149610060407,0.0788171459814484,0.0446226650026637,,,
0.238198041915894,0,0.0674224725273219,0.0511129410401512,0.10798389261769,0.0765428336313765,0.0787086059103734,0.0445269548329061,,,
0.240198135375977,0,0.0673843404512811,0.0511016310574569,0.107968067582615,0.0766186283968244,0.0786527489009796,0.0444837936143629,,,
0.242201089859009,0,0.0673535620991662,0.05107380313561,0.107949582689951,0.0766548829263309,0.0786130745545714,0.044447762602301,,,
0.244201183319092,0,0.0673549926108113,0.0510527030888442,0.107945827596882,0.0766474844989162,0.0786173660895069,0.0444476731953231,,,
0.246204137802124,0,0.0674048817044356,0.0510655329901615,0.107976516542019,0.0766110288037096,0.0786842648606616,0.0445085369954749,,,
0.248203992843628,0,0.0674665948708767,0.0510932044497972,0.108013776900026,0.0765573622652724,0.0787684862337692,0.0445788555835313,,,
0.25020694732666,0,0.0675056657201845,0.051111063493617,0.108033021752002,0.076493279813919,0.0788256619960859,0.0446248554736203,,,
0.252207040786743,0,0.0674711546267455,0.0510930926910749,0.108001975178954,0.0764469222959187,0.078792335545103,0.0445901208627368,,,
0.254209995269775,0,0.0673886766897055,0.0510514066876658,0.107941223137525,0.0764573829123238,0.0786919538607542,0.0445000656843264,,,
0.256212949752808,0,0.0673343172471901,0.0510304407513667,0.107911472965655,0.0765265392096685,0.078616539074962,0.044439470105108,,,
0.258213043212891,0,0.067317374624893,0.0510212094809067,0.107907829631308,0.0765901746261328,0.0785855819088914,0.0444184818170645,,,
0.260215997695923,0,0.0673131948486799,0.0510041998033762,0.107904566276618,0.0766049044257288,0.0785812680222115,0.0444133185640953,,,
0.262216091156006,0,0.0673696777069184,0.0510245398908305,0.107942899518359,0.0765914933790557,0.07865129603759,0.0444738023845914,,,
0.264219045639038,0,0.0674247971087452,0.0510466681178413,0.107975890693175,0.076536083404551,0.0787268896373379,0.0445359402341771,,,
0.266219139099121,0,0.0674897065746434,0.0510868565543719,0.108025668028077,0.0764914022673848,0.0788148437517695,0.0446148865955933,,,
0.268222093582153,0,0.0674890583740542,0.0510908128131405,0.108023432853631,0.076448308104075,0.0788220410134841,0.0446210780288074,,,
0.270221948623657,0,0.0674309885419594,0.051068058737285,0.107981478629289,0.0764519737901656,0.0787512083353053,0.0445579343507212,,,
0.272225141525269,0,0.0673483764944525,0.0510269762309761,0.107924638143139,0.0764971913691987,0.0786459316189208,0.0444658451635653,,,
0.274228096008301,0,0.0673039635782198,0.0509991483091293,0.107898754823059,0.0765554847187382,0.0785838608245684,0.0444144361513181,,,
0.276227951049805,0,0.0672957604880047,0.0509850667101224,0.107895536171858,0.0765855478150305,0.0785713885511623,0.0444021650436121,,,
0.278231143951416,0,0.0673483094392192,0.0510070831784109,0.107935992829322,0.0765917839517336,0.0786359850926382,0.0444596760820956,,,
0.28023099899292,0,0.0674032947305792,0.0510249198704862,0.107971822675684,0.0765454487854777,0.0787105058086521,0.0445235350160044,,,
0.282233953475952,0,0.0674828222373512,0.0510731549350208,0.108030294839179,0.0765049474245247,0.0788124521151128,0.0446155347961825,,,
0.284235000610352,0,0.0675021117928161,0.051085537801449,0.108037492100894,0.0764477269587191,0.0788449068480619,0.0446381547615713,,,
0.286237001419067,0,0.0674312791146373,0.0510414378096387,0.107978259978087,0.0764120535745685,0.0787673909982909,0.0445621811821677,,,
0.288238048553467,0,0.0673618098928702,0.0510105924022904,0.107933981172321,0.0764538960401888,0.0786761958809132,0.0444834583381961,,,
0.290241003036499,0,0.0673078304300106,0.0509813786722873,0.107904007483006,0.0765160338897745,0.0786033962492223,0.0444227957037444,,,
0.292241096496582,0,0.0672791978453634,0.0509537295643961,0.107886371956631,0.0765504108727468,0.078567052312738,0.0443901174533507,,,
0.294244050979614,0,0.0673269411715199,0.0509745837419729,0.107926135710017,0.0765745954602474,0.0786221270110759,0.0444380172417184,,,
0.29624605178833,0,0.0673631509975375,0.0509768189164184,0.107942407779981,0.0765264050992018,0.0786726866570338,0.0444770433875374,,,
0.298247098922729,0,0.0674279487047134,0.0510087819109895,0.107981255111844,0.0764742137758987,0.0787560586638521,0.0445498877227173,,,
0.300250053405762,0,0.0674591964434619,0.0510220141437071,0.107995828449229,0.0764110924495569,0.0788044948940867,0.0445875057086355,,,
0.302250146865845,0,0.0674215337540548,0.0510011152626413,0.107962233777313,0.0763668806990243,0.0787679497919023,0.0445536428157857,,,
0.304253101348877,0,0.0673600664568027,0.0509785400007415,0.107922827651838,0.0763934345714372,0.0786908586252759,0.0444874145969647,,,
0.306252956390381,0,0.0672927877059922,0.0509463758404703,0.10788149927634,0.0764545665925224,0.0785988588450979,0.0444156654972631,,,
0.308256149291992,0,0.0672666361649795,0.0509284720931616,0.107869250520378,0.0765083448896819,0.0785587374638006,0.0443810202933574,,,
0.310256004333496,0,0.0672669937928908,0.0509169162412782,0.107869474037823,0.076524304035223,0.0785593186091564,0.044380997941613,,,
0.312258958816528,0,0.0673315232791332,0.0509487004218936,0.107916636218624,0.0765184031746868,0.0786391366886064,0.0444528811517812,,,
0.314260959625244,0,0.0673958068961867,0.05098003756762,0.107958031649355,0.0764724926915756,0.078723067489036,0.0445283853445512,,,
0.316262006759644,0,0.0674610963417406,0.0510189966582056,0.108003986835955,0.0764267833741645,0.078809859312756,0.0446027048948651,,,
0.318264961242676,0,0.0674247747570008,0.0509879724369016,0.107966659422715,0.0763565318413415,0.0787809361554308,0.044567500897348,,,
0.320265054702759,0,0.0673697894656407,0.0509655312854685,0.107927610925151,0.0763621868326887,0.0787154231924323,0.044508492291986,,,
0.322268009185791,0,0.0673001190781735,0.0509372339769881,0.107885455535109,0.0764184685252271,0.078624540999477,0.044434999756217,,,
0.324268102645874,0,0.0672613835050325,0.050913272906932,0.107869250520378,0.0764824392178582,0.078572304972685,0.0443945878022418,,,
0.326271057128906,0,0.0672619199468994,0.0509057403690505,0.107878772363516,0.0765224488404332,0.0785727296558296,0.0443961077208647,,,
0.328274011611938,0,0.0672995602845621,0.0509196878575907,0.107904543924873,0.0765199901485431,0.0786162037987952,0.0444396712708081,,,
0.330274105072021,0,0.0673552608317448,0.0509416596223902,0.107931321314731,0.0764689611159517,0.078681336782138,0.0445009597541046,,,
0.332277059555054,0,0.0674075862655146,0.0509662241895466,0.107958366925522,0.076404766905876,0.0787506495416939,0.0445592084001551,,,
0.334277153015137,0,0.0674150070446738,0.050963296111023,0.107951773160907,0.0763349177044532,0.0787701849663478,0.0445665844758254,,,
0.336280107498169,0,0.0673693647824961,0.0509417713811125,0.10791782086108,0.0763159857768995,0.0787204523349348,0.0445183270595464,,,
0.338283061981201,0,0.067287870322212,0.0509019405724931,0.10786469076451,0.0763515250505835,0.0786203612232639,0.0444308423317483,,,
0.340283155441284,0,0.0672611823393324,0.0508987666247805,0.107859549863285,0.0764360593481135,0.0785751883477197,0.0444022544505899,,,
0.342286109924316,0,0.067229599324417,0.0508710951651448,0.107836684028707,0.0764670165141841,0.0785305966175314,0.0443665587146948,,,
0.34428596496582,0,0.0672424962809677,0.0508638084964524,0.107841757874698,0.0764660106856836,0.0785453264171274,0.0443834342817586,,,
0.346289157867432,0,0.0673040976886866,0.0508881271944198,0.107885030851964,0.0764391438888483,0.0786256362349553,0.0444543340151708,,,
0.348289012908936,0,0.067389637814717,0.0509352223199871,0.107948688620173,0.076402799952364,0.0787349809688307,0.044547764306994,,,
0.350291967391968,0,0.0674109390271829,0.0509403855729563,0.107957629317955,0.0763341800968862,0.0787742306320942,0.0445738487927733,,,
0.352295160293579,0,0.0673632180527709,0.0509119541540091,0.107912523497644,0.0762846262794288,0.0787247885733591,0.044526261928828,,,
0.354295015335083,0,0.0673028683427415,0.0508932904473889,0.107871284529124,0.0763169692536556,0.0786447022729757,0.0444628276780638,,,
0.356297969818115,0,0.0672552367753073,0.050876996025681,0.107850139778869,0.0763894336091797,0.0785777587983321,0.0444090940843933,,,
0.358299016952515,0,0.0672251066237815,0.0508555383510039,0.107836594621729,0.0764391438888483,0.0785366762920232,0.0443752535432879,,,
0.36030101776123,0,0.0672241902022589,0.0508401827025631,0.107838963906641,0.0764509456099207,0.0785387550042576,0.044374225363043,,,
0.36230206489563,0,0.0672653174120566,0.0508490563451119,0.107862880273209,0.0764228047636515,0.0785916168798944,0.0444209181572101,,,
0.364305019378662,0,0.0673350325030127,0.0508826063135393,0.107905907381285,0.0763764248939067,0.0786791016076924,0.0444993951319927,,,
0.366305112838745,0,0.0673993831752995,0.0509205148721355,0.107950409704496,0.0763300673759064,0.0787631441668444,0.0445705183828495,,,
0.368308067321777,0,0.067398422050288,0.0509225488808809,0.107946386390494,0.0762872637852745,0.0787704308355368,0.0445706748450607,,,
0.37030816078186,0,0.0673194756888718,0.0508818687059723,0.107888361261888,0.0762790159915705,0.078682320258894,0.0444864087684642,,,
0.372311115264893,0,0.0672493359147711,0.0508496821939566,0.107843300145066,0.0763311179078958,0.0785907451618606,0.0444060318954029,,,
0.374310970306396,0,0.0672085663328846,0.0508228153971214,0.107816701569164,0.076386796103334,0.0785299484169422,0.0443600543570583,,,
0.376314163208008,0,0.0672107121003523,0.0508172945162409,0.107823071816334,0.0764220224525955,0.0785308201349759,0.0443588473628577,,,
0.37831711769104,0,0.0672575837084751,0.0508361370368167,0.107860622747019,0.0764249952346081,0.0785904769409271,0.0444124915495505,,,
0.380316972732544,0,0.0673032036189084,0.0508468435224108,0.107885880218253,0.076372021600249,0.0786559228486923,0.0444649063902982,,,
0.382320165634155,0,0.0673698118173852,0.0508811758018942,0.107929443768197,0.0763220430996469,0.0787444804602242,0.0445402317691126,,,
0.384320020675659,0,0.0673806971169349,0.0508893341886204,0.107927879146085,0.0762644650059301,0.0787642841058116,0.0445576437780432,,,
0.386322975158691,0,0.0673307409680773,0.0508667812784649,0.107890618788078,0.0762486623226002,0.078710058773763,0.044505497158229,,,
0.388323068618774,0,0.0672802930808417,0.0508547113364591,0.107863930805198,0.0763072238930731,0.0786415506770075,0.0444480755267233,,,
0.390326023101807,0,0.0672236984638808,0.0508255423099449,0.107832839528661,0.0763686241350918,0.0785650630074815,0.044386496470749,,,
0.392327070236206,0,0.0671979716060128,0.0508017153503555,0.107814600505185,0.076404766905876,0.0785277579459855,0.0443587579558799,,,
0.394329071044922,0,0.067216590609144,0.0507959486002861,0.107826335171024,0.0764058397896099,0.0785511602224303,0.0443762817235329,,,
0.396332025527954,0,0.0672760238976507,0.0508147240656285,0.107864467247065,0.0763701664054592,0.0786293689762794,0.0444406547475642,,,
0.398332118988037,0,0.0673290422354987,0.0508368299408948,0.10789564793058,0.07631001786113,0.0787038896922934,0.0445048489576398,,,
0.400335073471069,0,0.0673643132882492,0.0508573264905604,0.107916189183735,0.0762521491947352,0.0787559469051298,0.0445514523448291,,,
0.402335166931152,0,0.0673025554183192,0.0508183897517192,0.10786057804353,0.0761933641068177,0.0786936525933328,0.0444881522045317,,,
0.404338121414185,0,0.0672379812285878,0.0507931769839736,0.10781728271452,0.0762212814356424,0.0786119346156042,0.0444207840467434,,,
0.406339168548584,0,0.0671981504199684,0.0507841245274692,0.107802642321902,0.0763029770616266,0.0785529260102422,0.0443758123368993,,,
0.4083411693573,0,0.0671522622886017,0.0507461936171286,0.107769986423252,0.0763375328585545,0.0784933809630133,0.0443217658188064,,,
0.410344123840332,0,0.0671532457653577,0.0507313520588102,0.107770366402908,0.0763459594662141,0.0784933139077799,0.0443218552257842,,,
0.412345170974731,0,0.0672261571557709,0.0507680536232059,0.107825351694268,0.0763418914487232,0.07858256442339,0.0444008239389448,,,
0.414347171783447,0,0.0672920277466807,0.0507988096235764,0.107870681032024,0.07629852906448,0.0786714349593443,0.0444771998497486,,,
0.416347980499268,0,0.06736612377955,0.0508470670398554,0.107925934544317,0.0762626768663736,0.0787672792395686,0.0445627176240346,,,
0.418351173400879,0,0.0673342501919568,0.0508258775861117,0.107891445802623,0.0761997343539875,0.0787395407246996,0.0445331239143758,,,
0.420351028442383,0,0.0672631716445889,0.0507923499694288,0.107836013476373,0.0761961133713857,0.0786549393719363,0.0444537305180705,,,
0.422353982925415,0,0.0671781456086809,0.0507478029427293,0.107778994176268,0.0762430296829974,0.0785469133909837,0.0443613060547478,,,
0.424354076385498,0,0.0671441709571089,0.0507257641226964,0.107762923272005,0.0763060839541058,0.0784973372217819,0.0443238892345296,,,
0.42635703086853,0,0.0671585878322825,0.0507275746139973,0.107780916426291,0.0763485969720598,0.0785070825823644,0.0443354003829241,,,
0.428357124328613,0,0.0671860134227292,0.05072623350933,0.107797903752077,0.0763324366608187,0.0785460193212055,0.0443658658106167,,,
0.430504083633423,0,0.0672471007403255,0.0507496581375191,0.107836415807774,0.0762871520265522,0.0786279161128898,0.044434508017839,,,
0.432507038116455,0,0.0673048129445091,0.05078121880069,0.107871977433202,0.0762336195985817,0.0787081141719954,0.0445024573209831,,,
0.434508085250854,0,0.0673282152209538,0.050796976780531,0.107884919093242,0.0761844681125245,0.0787444357567353,0.0445305534637634,,,
0.43651008605957,0,0.0672807177639863,0.0507789165710111,0.107849424523047,0.0761736498682082,0.0786892269479307,0.0444820725300399,,,
0.43851113319397,0,0.0671825041988497,0.0507255853087408,0.107778524789634,0.0761966274615082,0.0785690863214834,0.0443763040752773,,,
0.440514087677002,0,0.0671294635092573,0.0506952539915149,0.107746606498552,0.076254250258714,0.0784969348903817,0.0443136297838247,,,
0.442516088485718,0,0.0671066200264239,0.0506711364592476,0.107733597783279,0.0762877555236525,0.0784676764568897,0.0442862936003558,,,
0.444517135620117,0,0.0671341573755929,0.0506736398546266,0.107753647298056,0.0762936563841887,0.0785003323555389,0.0443172731181709,,,
0.446519136428833,0,0.0672162553329772,0.0507175386807369,0.107812588848184,0.0762791501020372,0.0785986576793978,0.0444111504448832,,,
0.448519945144653,0,0.0672746827929834,0.0507469312246956,0.10785009507538,0.0762261094124448,0.0786778499100029,0.0444821172335288,,,
0.450523138046265,0,0.0673056176073095,0.0507603199196243,0.107865361316843,0.0761625186994694,0.0787244532971923,0.0445181258938463,,,
0.452522993087769,0,0.0672715759005041,0.0507450313264169,0.107835968772884,0.0761253030449513,0.0786894057618863,0.044481737253873,,,
0.454525947570801,0,0.0672144224899319,0.050728245166331,0.107800809478856,0.0761637033419255,0.0786133874789938,0.0444150396484184,,,
0.456526041030884,0,0.0671516364397569,0.0507005513549508,0.107765404315639,0.0762283445868903,0.0785313118733539,0.0443471350487632,,,
0.458528995513916,0,0.0671003838897209,0.0506565631218628,0.107728926268688,0.076259994657039,0.0784672964772339,0.0442915462603028,,,
0.460530996322632,0,0.0671111797822928,0.0506498128950373,0.107736145882147,0.076276981982825,0.0784774441692166,0.0443041526441756,,,
0.462532043457031,0,0.0671787714575257,0.0506814853169305,0.107786146734494,0.07626652136642,0.0785616655423242,0.0443800144648569,,,
0.464534997940063,0,0.0672350084465752,0.0507067874916539,0.107820926048866,0.0762132795111274,0.0786394943165176,0.0444454380208776,,,
0.466535091400146,0,0.0672766944499844,0.0507249371081516,0.1078441718631,0.0761535780016873,0.0787016098143589,0.0444923990359782,,,
0.468538045883179,0,0.067257136673586,0.0507134036080126,0.107821976580855,0.0761025713208403,0.0786864776833627,0.0444744952886695,,,
0.470538139343262,0,0.0672016372921034,0.0506967962618823,0.107784760926337,0.0761160270710024,0.0786182601592851,0.0444184371135756,,,
0.472541093826294,0,0.0671256637126999,0.0506587535928194,0.107734648315269,0.0761672796210384,0.0785183031580809,0.0443309076822886,,,
0.474540948867798,0,0.067087822209337,0.0506313727058617,0.107712341274302,0.0762222202089095,0.0784654636341886,0.0442839243154436,,,
0.476544141769409,0,0.0670622518136802,0.0506008625746802,0.107690794192647,0.0762356759590716,0.0784343500059068,0.0442592256378204,,,
0.478547096252441,0,0.0671049436455898,0.0506102279556069,0.107719493832528,0.0762263329298893,0.0784894917594781,0.0443059184319876,,,
0.480546951293945,0,0.0671835547308391,0.0506493658601482,0.107775507304133,0.0761936993829846,0.0785873700484478,0.0443911456335957,,,
0.482550144195557,0,0.0672504982054827,0.0506879673228225,0.107821529545966,0.0761477665481289,0.0786742512791456,0.0444685497246444,,,
0.484549999237061,0,0.067268625470236,0.0507009760380955,0.107832370142027,0.0760993973731276,0.0787069965847727,0.0444917955388779,,,
0.486552953720093,0,0.0672144895451652,0.0506756068081387,0.10778833720545,0.0760841311316647,0.0786443446450644,0.0444339939277165,,,
0.488553047180176,0,0.0671416005064965,0.0506444708281125,0.107737799911237,0.0761268676670632,0.0785489026962403,0.0443520747842878,,,
0.490556001663208,0,0.067077808627821,0.0506068081387053,0.107698952579373,0.0761795507287444,0.0784705151284355,0.0442823373415872,,,
0.492557048797607,0,0.0670535793368315,0.0505823776820156,0.107682725212899,0.0762075798162913,0.0784363169594189,0.044256699890697,,,
0.494559049606323,0,0.0670991768955203,0.0506031871561035,0.107719896163928,0.0762252823978999,0.0784873906954993,0.0443077512750329,,,
0.496560096740723,0,0.0671460038001542,0.0506156594295096,0.10774895343172,0.0761821211793567,0.0785544682806096,0.0443649270373496,,,
0.498562097549438,0,0.067214623655632,0.0506523386421607,0.107792427574686,0.0761316956438655,0.0786433388165639,0.0444434487156211,,,
0.500565052032471,0,0.0672330191413187,0.0506560713834848,0.107796339129965,0.0760601700616086,0.0786797498082816,0.0444681026897553,,,
0.50256609916687,0,0.067192093097221,0.0506375194355869,0.10776124689117,0.0760218815233566,0.0786368791624164,0.0444268860729797,,,
0.504568099975586,0,0.0671191370033189,0.0506048635369377,0.107711491908013,0.0760473625120357,0.078544767623516,0.0443476044353967,,,
0.506569147109985,0,0.0670652022439483,0.0505805671907147,0.107683440468721,0.076115468277391,0.0784705821836689,0.044284192536377,,,
0.508571147918701,0,0.0670462926681391,0.0505640268998178,0.107674723288384,0.0761693583332727,0.0784394015001537,0.0442540400331068,,,
0.510571956634521,0,0.0670627435520582,0.0505620152428168,0.107688044928079,0.0761892737375824,0.0784544218724277,0.044268926294914,,,
0.512573957443237,0,0.0670931419245174,0.0505585060189374,0.107701075995097,0.076148951190585,0.0784977395531821,0.0443033032778863,,,
0.514577150344849,0,0.0671721553411669,0.0506009072781691,0.10775532367889,0.0761084945331209,0.0786019880893216,0.0443902962673064,,,
0.516577959060669,0,0.06723789182161,0.05064621426418,0.107801971769568,0.0760677473029789,0.0786868576630184,0.0444693543874448,,,
0.518579959869385,0,0.0672208374405906,0.0506363347931307,0.107782972786781,0.076020920398345,0.0786750112384571,0.0444540210907484,,,
0.520581007003784,0,0.0671450873786315,0.0505975321647563,0.107727495757043,0.0760200263285668,0.0785842184524796,0.0443705820286968,,,
0.522583961486816,0,0.067072064229496,0.0505591542195266,0.107680288872753,0.0760712565268584,0.0784886647449332,0.0442877017602565,,,
0.524584054946899,0,0.0670401235866694,0.0505389929460279,0.107664955576057,0.0761310027397874,0.0784417931368104,0.0442524530592505,,,
0.526587009429932,0,0.0670354073685893,0.0505238161115427,0.1076625639394,0.0761543603127432,0.0784337018053176,0.044244182913802,,,
0.528587102890015,0,0.0670674374183938,0.0505271465214666,0.107681138239043,0.0761372388764905,0.0784764383407162,0.0442806162572642,,,
0.530590057373047,0,0.0671412652303297,0.0505661056120522,0.107733866004213,0.0761024148586291,0.0785708744610398,0.0443668492873727,,,
0.53259015083313,0,0.0672031795624709,0.0505997449874574,0.107775261434944,0.0760509834946374,0.0786541794126248,0.0444396936225526,,,
0.534593105316162,0,0.0672171717544999,0.0506096244585066,0.10777950826639,0.075998680412612,0.0786777381512807,0.044457731480328,,,
0.536592960357666,0,0.0671542068903693,0.050575672158679,0.107728345123332,0.0759748981565116,0.0786037985806225,0.0443876811132051,,,
0.538596153259277,0,0.0671009426833323,0.0505594894956934,0.107697276198539,0.0760321633258061,0.0785280485186635,0.0443255432636193,,,
0.540596008300781,0,0.0670470302757061,0.0505285770331117,0.107666542549913,0.0760922224631575,0.0784560535497729,0.0442648582774232,,,
0.542598962783813,0,0.067029595915031,0.0505097345125359,0.107660373468444,0.0761277840885859,0.0784323383489058,0.0442440040998464,,,
0.544602155685425,0,0.0670649787265037,0.0505202174806854,0.107686659119923,0.0761352272194895,0.0784730855790479,0.044281689140998,,,
0.546601057052612,0,0.0671066647299128,0.0505269677075109,0.107706708634699,0.0760840193729424,0.0785338152687329,0.0443295889293657,,,
0.548604011535645,0,0.0671827724197832,0.0505728558388777,0.107763325603405,0.0760429145148891,0.0786329676071367,0.044417475988564,,,
0.55060601234436,0,0.0671965410943676,0.0505754486412345,0.107764823170283,0.0759746075838336,0.0786623601510954,0.0444416158725757,,,
0.55260705947876,0,0.0671867510302962,0.0505815283157263,0.107758207053924,0.0759628729179946,0.0786534641568022,0.0444301270759257,,,
0.554610013961792,0,0.0670977910873641,0.0505353496116817,0.107694482230482,0.0759822742321818,0.0785462204869056,0.0443330981532452,,,
0.556610107421875,0,0.0670208787346934,0.0504907131780044,0.107643184976957,0.0760316045321947,0.0784466211136128,0.0442487426696709,,,
0.558613061904907,0,0.0669846242051869,0.0504598677706561,0.107616921677222,0.0760682166896125,0.0783949662321766,0.0442080401430178,,,
0.56061315536499,0,0.0669893180715225,0.0504475519594612,0.107620095624935,0.0760761515588941,0.0784016270520242,0.0442123763814421,,,
0.562616109848022,0,0.0670719524707738,0.0504904673088154,0.107683753393144,0.0760735587565373,0.0785019863846286,0.0443015821935632,,,
0.564617156982422,0,0.0671255296022331,0.0505115450038367,0.107716006960393,0.0760171429535321,0.0785760600657535,0.0443636976914045,,,
0.566620111465454,0,0.0671795314168371,0.0505437538675969,0.107754049629456,0.07596716445293,0.0786510054649121,0.0444277130875245,,,
0.568619966506958,0,0.0671594148468274,0.0505346567076035,0.107733106044901,0.0759173424145392,0.0786343981187818,0.044408982325671,,,
0.570623159408569,0,0.0670911973227498,0.050503900707233,0.107685385070489,0.075925433746032,0.0785520989956974,0.0443348862928017,,,
0.572623014450073,0,0.0670258408219625,0.0504748657911856,0.107646604793859,0.0759856269938501,0.0784643683987103,0.0442626231029776,,,
0.574625968933105,0,0.0669950624698475,0.0504550621455982,0.107630109206451,0.0760431827358225,0.0784182343981545,0.0442245804339147,,,
0.576627016067505,0,0.0669955095047366,0.0504454508954824,0.10763160677333,0.0760694013320686,0.0784148145812529,0.0442235969571587,,,
0.578629970550537,0,0.067039318923869,0.0504563808985211,0.107663636823134,0.0760600359511418,0.078472258564503,0.0442713402833152,,,
0.58063006401062,0,0.0671017473461327,0.0504799843406659,0.107705971027132,0.0760141031162862,0.0785558540887659,0.0443396919178595,,,
0.582633018493652,0,0.0671586772392603,0.0505105391753363,0.10774258318455,0.0759639458017285,0.0786336381594703,0.044409474064049,,,
0.584633111953735,0,0.0671509658874233,0.0505057335502784,0.107728680399499,0.0759011150480646,0.0786372144385832,0.0444089152704376,,,
0.586636066436768,0,0.0671001603722764,0.0504859522564354,0.107689922474613,0.075893180178783,0.0785782058332212,0.0443531700197661,,,
0.588637113571167,0,0.0670344238918333,0.0504581019828441,0.107648080008993,0.0759452597433638,0.0784908552158898,0.0442796998357415,,,
0.590639114379883,0,0.0669969847198707,0.050438901834357,0.107631092683207,0.0760152877587423,0.0784361381454632,0.0442349292915975,,,
0.592642068862915,0,0.0669807126499072,0.0504208192730927,0.107622844889503,0.076052436358027,0.0784113500608623,0.0442187913321008,,,
0.594643115997314,0,0.0669975211617376,0.0504159465928014,0.107632187918685,0.0760459096486461,0.0784322936454169,0.0442408972073671,,,
0.596642971038818,0,0.067054585165332,0.0504358396453666,0.107670007070304,0.0760067940958493,0.0785093624602988,0.0443057619697764,,,
0.59864616394043,0,0.0671164100904954,0.0504645392852472,0.107710799003935,0.0759533287231122,0.0785955731386629,0.0443746723979321,,,
0.600649118423462,0,0.0671256860644443,0.0504635558084912,0.107706283951555,0.0758793444489651,0.0786193553947634,0.044392486738263,,,
0.602648973464966,0,0.0670929854623062,0.0504514411629964,0.107678232512263,0.0758513600649071,0.0785844866734131,0.0443575956651682,,,
0.604652166366577,0,0.0670351391476559,0.0504337162296434,0.107639541642611,0.0758924425712159,0.078504020393374,0.0442909874666914,,,
0.606652021408081,0,0.0669810032225851,0.050406894136297,0.107610283209119,0.0759605036330823,0.0784303713953938,0.0442277990851163,,,
0.608654975891113,0,0.0669494649111587,0.0503782168481608,0.10758951843852,0.0759998650550681,0.078387478397784,0.0441911198724651,,,
0.610655069351196,0,0.066965044077044,0.0503770322057047,0.107601141345637,0.076017187657021,0.0784053150898594,0.044210700000608,,,
0.612658023834229,0,0.0670199399614263,0.0503975064036258,0.107637574689099,0.0759956405753661,0.0784754325122157,0.0442716085042487,,,
0.614660024642944,0,0.067079574415633,0.0504222944882267,0.107674924454084,0.075939917676439,0.0785552058881767,0.0443360038800244,,,
0.616660118103027,0,0.0671311398900914,0.0504497200786734,0.10770977082369,0.0758857146961349,0.078625815048911,0.0443944313400306,,,
0.61866307258606,0,0.0670977910873641,0.0504282847557407,0.107675013861062,0.0758278013262512,0.0785940755717844,0.044362244828015,,,
0.620663166046143,0,0.0670500030577186,0.050416907717813,0.107645978945014,0.075852634114341,0.0785333235303549,0.0443112381471679,,,
0.622666120529175,0,0.0669957106704367,0.0503995851158601,0.10761826278189,0.0759212316180744,0.0784574393579291,0.0442493238150267,,,
0.624668121337891,0,0.0669501354634923,0.0503639340834539,0.107589741955965,0.0759655774790737,0.0783958379502103,0.0441934891573774,,,
0.62666916847229,0,0.0669454639489012,0.0503458068187006,0.107588177333853,0.0759853587729167,0.0783884395227956,0.0441840120177283,,,
0.628671169281006,0,0.0669926931849352,0.0503597990107297,0.107619805052257,0.0759764180751345,0.0784466881688461,0.0442346610706641,,,
0.630671977996826,0,0.0670417776157591,0.0503740370719477,0.107644056694991,0.075919443478518,0.0785143245475679,0.0442922615161254,,,
0.632673978805542,0,0.0670923596134615,0.0503988475082931,0.107672912797083,0.0758581996987104,0.0785849337083022,0.0443499290168201,,,
0.634677171707153,0,0.0670934772006842,0.0504010603309942,0.107668688317381,0.0757998169421931,0.0785985906241644,0.0443555169529339,,,
0.636677026748657,0,0.0670225104120386,0.0503629282549534,0.107613881839977,0.0757807285524283,0.0785178337714474,0.0442834996322989,,,
0.638679981231689,0,0.0669493531524364,0.0503300935423486,0.107565713830675,0.0758287177477739,0.0784236435203127,0.0442048214918162,,,
0.640681982040405,0,0.0669342880766735,0.0503314793505048,0.107568351336521,0.0759146155017156,0.0783921275606307,0.0441829391339945,,,
0.642683029174805,0,0.0669199382567332,0.05031464848693,0.107560707039917,0.0759531052056676,0.0783689935051195,0.0441632695988738,,,
0.644685029983521,0,0.0669293706928934,0.050298108196033,0.10756182462714,0.0759354249758035,0.0783845056157715,0.0441706680262885,,,
0.64668607711792,0,0.0670059701211417,0.0503352567953177,0.107618016912701,0.0759080887923347,0.0784814674832186,0.0442564316697635,,,
0.648688077926636,0,0.0670761993022203,0.0503768757434935,0.107668420096447,0.0758630500272572,0.0785750095337641,0.0443383284614478,,,
0.650690078735352,0,0.0670846259098799,0.0503778592202496,0.107666631956891,0.0757943631165461,0.078598523568931,0.0443546228831557,,,
0.652691125869751,0,0.0670561497874439,0.0503695667230566,0.10764289440428,0.0757715196337127,0.0785682146034496,0.0443245597868633,,,
0.654694080352783,0,0.0670016785862063,0.0503545687025271,0.107608070386418,0.0758148373144671,0.0784921516170682,0.044262690158211,,,
0.656694173812866,0,0.0669337292830621,0.0503162131090418,0.107563389249252,0.0758710072482833,0.0784021858456356,0.0441862695439183,,,
0.658696174621582,0,0.0668930714598979,0.0502783939574234,0.107536745969861,0.0759030820015767,0.078350218039777,0.044140649633485,,,
0.660699129104614,0,0.066894546675032,0.0502637312130608,0.107536142472761,0.0759048477893886,0.0783522967520114,0.0441450082236538,,,
0.662700176239014,0,0.0669659157950778,0.0502970353122992,0.107587484429775,0.0758894250857145,0.0784388650582868,0.044224692192637,,,
0.664702177047729,0,0.0670233374265835,0.0503239021091344,0.10762418599417,0.0758369655414779,0.0785142574923345,0.0442919262399586,,,
0.666702032089233,0,0.0670809602237892,0.0503598884177075,0.107663189788245,0.0757897810089327,0.0785909686793052,0.0443582438657575,,,
0.668704986572266,0,0.0670769816132762,0.0503671974381444,0.107660395820188,0.0757574827381948,0.0785943884962068,0.0443550028628114,,,
0.670706987380981,0,0.0669827690103971,0.0503145590799521,0.10758971960422,0.075753370017215,0.0784853343350094,0.0442553811377741,,,
0.672708034515381,0,0.0669122045531517,0.0502771199079895,0.107543205624009,0.0758076847562414,0.0783929098716867,0.0441768147560137,,,
0.674710035324097,0,0.0668895622360184,0.0502632841781717,0.107535606030894,0.0758696437918715,0.0783565212317134,0.0441467069562324,,,
0.676711082458496,0,0.0668701832735757,0.050234092799913,0.107518886926041,0.0758795679664097,0.0783321578302572,0.0441225894239651,,,
0.678713083267212,0,0.0669245650678355,0.0502559751577348,0.107557220167782,0.0758733541814511,0.0783989671944341,0.044183654389817,,,
0.680716037750244,0,0.0670011868478283,0.0502959624285653,0.107610596133542,0.0758389324949899,0.0784975607392264,0.0442677193007135,,,
0.682716131210327,0,0.0670595472526011,0.0503279254231364,0.107649711686338,0.0757885516629877,0.078576283583198,0.0443365403218913,,,
0.684719085693359,0,0.0670658727962819,0.0503323510685386,0.107647744732826,0.0757361591739844,0.0785905886996494,0.0443485655604083,,,
0.686721086502075,0,0.0669967612024261,0.050297370588466,0.107594704043234,0.0757211388017105,0.0785105247510105,0.0442792080973635,,,
0.688722133636475,0,0.0669217487480341,0.0502613172246596,0.107544434969954,0.0757648364621206,0.0784126464620407,0.0441956349248451,,,
0.69072413444519,0,0.0668785875294909,0.0502366856022698,0.107521859708054,0.0758225486663042,0.0783532131735341,0.0441443153195757,,,
0.692723989486694,0,0.0668679928026191,0.0502214864160402,0.107518574001619,0.0758557186550759,0.0783373881384597,0.0441280656013567,,,
0.694727182388306,0,0.066900536942546,0.0502300918376555,0.10754090339433,0.0758573503324211,0.0783782694790685,0.0441667341192644,,,
0.696729183197021,0,0.0669598137688415,0.0502533153001446,0.10757722497907,0.0758201123261586,0.0784554053491837,0.0442346163671751,,,
0.698729991912842,0,0.0670273830923299,0.0502900392162847,0.107624364808126,0.0757740453808362,0.0785462428386501,0.0443128474727687,,,
0.700731992721558,0,0.0670250138074176,0.050280092690002,0.107611199630642,0.0756955907577981,0.0785564799376106,0.0443180554292268,,,
0.70273494720459,0,0.0669761305422939,0.0502521530094329,0.107569893606888,0.0756615714027371,0.0785024334195177,0.0442693286263142,,,
0.704735040664673,0,0.0669175019165876,0.050228594270777,0.107532543841904,0.0757004857898338,0.0784259233982472,0.0441985406516243,,,
0.706743001937866,0,0.0668553864187463,0.0501953795785164,0.107491796611762,0.0757587791393732,0.0783453677112302,0.0441292278920684,,,
0.708743095397949,0,0.0668353369039699,0.0501775205346966,0.107482900617468,0.0758045778637621,0.0783141870277151,0.0441054903394568,,,
0.710746049880981,0,0.0668525700989449,0.0501761570782849,0.10749720573392,0.075816401936579,0.0783315319814124,0.0441217400576758,,,
0.712746143341064,0,0.0668863659365613,0.0501777440521412,0.107515109481229,0.0757746712296809,0.0783812869645699,0.0441630684331737,,,
0.714746952056885,0,0.066958562071152,0.0502151832241038,0.107563299842274,0.0757290736709921,0.0784764159889717,0.0442447417074134,,,
0.716747045516968,0,0.0670109098566663,0.0502473697361195,0.107599755537481,0.075679832777957,0.0785479192194842,0.0443096288215672,,,
0.718747138977051,0,0.0669837301354087,0.0502348974627134,0.107573156961579,0.0756348163646241,0.0785229299691832,0.0442863606555892,,,
0.720750093460083,0,0.0669341539662068,0.0502218216922071,0.107543831472854,0.0756613478852925,0.0784633849219543,0.0442321800270295,,,
0.722749948501587,0,0.0668570627995804,0.0501823708632434,0.107494076489696,0.0757140085952292,0.0783662442405515,0.0441446505957425,,,
0.724753141403198,0,0.0668103700054133,0.0501464292581593,0.107466159160871,0.0757587344358843,0.0783061180479667,0.0440911181677721,,,
0.726752996444702,0,0.066813007511259,0.050136102752221,0.107470607158018,0.0757826731541959,0.0783072803386784,0.0440966837521414,,,
0.728755950927734,0,0.0668526371541783,0.0501472115692152,0.107496915161242,0.0757643894272315,0.0783615727259603,0.044144672947487,,,
0.730756044387817,0,0.0669163396258759,0.0501732289997612,0.107537550632662,0.0757155061621077,0.078445011788012,0.0442144550936765,,,
0.73275899887085,0,0.0669844453912312,0.0502112716688242,0.107582187066339,0.0756683216295626,0.0785331670681437,0.0442895793067907,,,
0.734760046005249,0,0.0669731354085368,0.05019810649134,0.107565065630086,0.0756040603642536,0.078532049480921,0.0442768164607068,,,
0.736762046813965,0,0.0669222181346677,0.0501752630085067,0.107529124025002,0.0756025180938861,0.0784731302825368,0.0442186795733785,,,
0.738763093948364,0,0.0668676798781967,0.0501596614908769,0.107497943341487,0.0756642536120717,0.0783955920810213,0.0441579945871824,,,
0.74076509475708,0,0.0668182154677171,0.0501309394992518,0.107470003660918,0.0757237763075562,0.0783284250889331,0.0441021152260441,,,
0.742766141891479,0,0.0668190424822619,0.0501232057956702,0.107476753887743,0.0757651046830541,0.0783234853534085,0.0440977342841308,,,
0.744768142700195,0,0.0668497984826325,0.0501267150195497,0.107501743138044,0.0757664010842325,0.0783639867143615,0.0441318206944252,,,
0.746768951416016,0,0.0669106399310398,0.0501504525721613,0.107541529243175,0.0757279560837693,0.0784426648548442,0.0441987641690688,,,
0.748772144317627,0,0.0669770246120721,0.050188584648202,0.107584176371595,0.0756774411413003,0.0785284732018081,0.044276190611862,,,
0.750771999359131,0,0.0669911285628234,0.0501961842413168,0.107585338662307,0.0756117493643462,0.0785602350306791,0.0442995258330734,,,
0.752774953842163,0,0.0669428711465444,0.0501725360956831,0.107545887833343,0.0755829379657433,0.0785092059980876,0.0442509778441164,,,
0.754778146743774,0,0.0668671881398187,0.0501388296650445,0.10749454587633,0.0756154150504369,0.0784126017585518,0.044169908066977,,,
0.756778001785278,0,0.0668307100928676,0.0501268714817609,0.107479771373245,0.0756933108798636,0.0783560741968243,0.0441279091391455,,,
0.758780956268311,0,0.0668068384297894,0.0501064419873288,0.107467992003917,0.0757380814240076,0.0783195290946399,0.0440990083335648,,,
0.760781049728394,0,0.066821747043341,0.0501050561791725,0.107477916178455,0.0757473350462121,0.0783370975657818,0.0441142075197944,,,
0.762784004211426,0,0.0668863212330724,0.0501344710748757,0.107522262039454,0.0757275984558581,0.0784166474242982,0.0441881917939415,,,
0.764784097671509,0,0.0669578915188183,0.050172089060794,0.107570139476077,0.0756849289756929,0.0785085130940095,0.0442703344548147,,,
0.766787052154541,0,0.0669903686035119,0.0501867741569011,0.107588356147809,0.0756217629458622,0.0785618220045354,0.0443131827489356,,,
0.768787145614624,0,0.0669497554838366,0.0501603096914661,0.107550827568868,0.0755658165294905,0.0785244498878062,0.0442750953763837,,,
0.770790100097656,0,0.0668801968550917,0.050126826778272,0.107501027882222,0.075578601727319,0.0784405637908654,0.0441963948841566,,,
0.772793054580688,0,0.0667911028016928,0.0500731825915793,0.107438688866936,0.0756176725766268,0.0783297885453449,0.0440954544061964,,,
0.774793148040771,0,0.0667666052897698,0.0500572681495271,0.107426194241785,0.0756772399756002,0.0782926622978046,0.0440684087954055,,,
0.776796102523804,0,0.0667761494846522,0.0500541612570478,0.107436587802957,0.0757062748916477,0.0782990772484633,0.0440778635833101,,,
0.778795957565308,0,0.0668181707642282,0.0500618502571404,0.107464080448637,0.0756862477286157,0.0783516709031666,0.0441223659065206,,,
0.780799150466919,0,0.0668920879831419,0.0500969648476797,0.107514818908551,0.0756467745479077,0.078446241133957,0.044205939079039,,,
0.782799005508423,0,0.0669512306989706,0.0501344710748757,0.107555901414859,0.0755986288903509,0.0785274003180743,0.0442780011031629,,,
0.784801959991455,0,0.0669111316694178,0.050101301086104,0.107512047292238,0.0755178049824005,0.07849577259967,0.0442423947742456,,,
0.786803007125854,0,0.0668718596544098,0.0500921145191329,0.107486096916926,0.0755272821220496,0.0784479845700246,0.0441987194655799,,,
0.78880500793457,0,0.066817522563639,0.0500775188300036,0.107455050343877,0.075590090523969,0.0783702675545535,0.044135396973538,,,
0.79080605506897,0,0.0667715003218055,0.0500504508674682,0.107428317657509,0.0756497696816647,0.0783075932631008,0.044085664342125,,,
0.792809009552002,0,0.0667483662662943,0.0500251486927448,0.107413006712557,0.0756743566005655,0.0782791841958981,0.0440612785889242,,,
0.794809103012085,0,0.0667716567840167,0.0500217735793321,0.107426373055741,0.0756619066789039,0.0783083532224123,0.0440841891269909,,,
0.796812057495117,0,0.0668406342674058,0.0500542506640256,0.107473915216197,0.0756297872221216,0.0783979390141891,0.0441640295581853,,,
0.7988121509552,0,0.066910304654873,0.0500933215133335,0.107520339789431,0.0755849496227443,0.0784891788350557,0.0442444511347355,,,
0.800815105438232,0,0.066937305562175,0.0501119181647203,0.107532767359348,0.0755327806511856,0.0785274003180743,0.0442765929432622,,,
0.802817106246948,0,0.0668713008607985,0.0500725120392456,0.107478229102877,0.0754935533396665,0.0784568358608289,0.0442070566662618,,,
0.804818153381348,0,0.0667996188163303,0.0500416889836417,0.107430396369743,0.075529807869173,0.0783649478393731,0.0441309713281359,,,
0.80682110786438,0,0.066748500376761,0.0500174373409077,0.107403618979885,0.0755994335531513,0.0782938692920052,0.044079674074611,,,
0.808820962905884,0,0.066717722024646,0.049987307189382,0.107386251674444,0.0756370515390696,0.0782543290560638,0.0440443136148827,,,
0.810824155807495,0,0.0667526130977408,0.0500012546779221,0.107418639352159,0.0756602750015587,0.0782957021350505,0.0440826021531346,,,
0.812824010848999,0,0.0668023010256649,0.0500150233525066,0.107448657744963,0.0756231264022739,0.0783620421125939,0.0441307478106913,,,
0.814826965332031,0,0.066877514645757,0.0500541165535589,0.107496334015886,0.0755730361429496,0.0784549136108057,0.0442018487098037,,,
0.816828012466431,0,0.0669122045531517,0.0500694274985108,0.107508515716614,0.0755060926683059,0.0785018522741618,0.0442347504776419,,,
0.818830013275146,0,0.0668736030904774,0.0500473216232445,0.107465466256793,0.0754520685019575,0.0784617308928646,0.0441966184016011,,,
0.820831060409546,0,0.0668044691448771,0.0500162526984516,0.107415018369558,0.07546878760681,0.0783746708482111,0.0441214494849979,,,
0.822833061218262,0,0.0667508696616733,0.0499977678057871,0.107384955273265,0.0755406484652339,0.0782994125246301,0.0440673806151605,,,
0.824834108352661,0,0.0667284508619846,0.0499867483957706,0.10737203596497,0.0756021157624859,0.0782634262160571,0.0440416090538036,,,
0.826836109161377,0,0.0667474274930271,0.0499915987243174,0.107390319691935,0.0756365150972027,0.0782818664052327,0.0440592892836677,,,
0.828837156295776,0,0.0667907228220371,0.0500018805267668,0.107419667532404,0.0756161973614928,0.0783401597547722,0.0441075690516912,,,
0.830839157104492,0,0.0668589179943702,0.0500319883265481,0.107460615928246,0.0755684093318473,0.0784293432151488,0.0441770829769472,,,
0.832842111587524,0,0.0668935408465315,0.0500423595359754,0.107472551759786,0.0754947826856116,0.0784848202448869,0.0442123316779532,,,
0.834843158721924,0,0.0668713902677763,0.0500208795095538,0.107442801587916,0.075423525324288,0.0784706715906467,0.0441879012212636,,,
0.83684515953064,0,0.0668216799881077,0.0500022605064226,0.107406927038065,0.0754285768185349,0.078410992432951,0.0441355534357492,,,
0.83884596824646,0,0.0667628501967013,0.0499833956341023,0.107374628767327,0.0754927039733772,0.0783316660918791,0.0440738179175637,,,
0.840847969055176,0,0.0667301272428187,0.0499650448519045,0.107361977679965,0.0755587086747537,0.0782847721320119,0.0440329589286994,,,
0.842849016189575,0,0.066729747263163,0.0499577581832121,0.10736917494168,0.0755983159659285,0.0782817769982549,0.0440297402774978,,,
0.844851016998291,0,0.0667590951036328,0.0499601721716132,0.107387793944811,0.0755920351257366,0.0783189703010285,0.0440614574028799,,,
0.84685206413269,0,0.0668162932176939,0.0499831050614244,0.107424450805718,0.0755517125787392,0.0783938039414649,0.0441283785257791,,,
0.848855018615723,0,0.0668683951340193,0.0500091448437148,0.107457106704367,0.0754937321536222,0.0784653965789552,0.0441938244335442,,,
0.850855112075806,0,0.0668755029887561,0.0500076919803252,0.107453463370021,0.0754272357138676,0.0784851778727982,0.0442062072999725,,,
0.852858066558838,0,0.066829011360289,0.0499841332416693,0.107415577163169,0.0754020900013554,0.0784334559361286,0.0441579498836934,,,
0.854858160018921,0,0.0667733778683398,0.0499683529100839,0.107384619997098,0.0754491851269227,0.0783592704962814,0.0440941356532735,,,
0.856861114501953,0,0.066710502411187,0.0499318748631328,0.107344006877423,0.0755028293136155,0.0782766808005191,0.0440208889866935,,,
0.858860969543457,0,0.0666680564484664,0.0498907029498461,0.107310859240396,0.0755246669679483,0.0782227907446373,0.0439722068872698,,,
0.860864162445068,0,0.06671222349551,0.0499097242843776,0.107345772665235,0.0755491421281269,0.0782693270765933,0.0440194808267928,,,
0.862864971160889,0,0.0667844643335896,0.0499470740493624,0.10739832161645,0.0755333617965414,0.0783580187985919,0.0440995224236873,,,
0.8648681640625,0,0.0668341075580248,0.0499664083083163,0.107427714160408,0.0754741520254793,0.0784300808227159,0.0441569887586819,,,
0.866868019104004,0,0.0668768440934234,0.0499885141835826,0.107452792817687,0.0754175574085185,0.078491011678101,0.0442038827185491,,,
0.868870973587036,0,0.0668401201772833,0.0499673917850723,0.107418080558548,0.0753695905649174,0.0784543548171943,0.0441644318895855,,,
0.870871067047119,0,0.066756256432087,0.0499215707089389,0.107356277985129,0.0753744632452086,0.0783552918857684,0.0440712251152069,,,
0.872874021530151,0,0.066695236169724,0.0498934298626697,0.1073195093655,0.0754355952662939,0.0782720316376724,0.0440043039923077,,,
0.874876976013184,0,0.0666692857944114,0.0498751014322163,0.107308355845017,0.0754911393512653,0.078233474878487,0.0439725868669256,,,
0.876877069473267,0,0.0666898493993103,0.0498783200834179,0.107328070083627,0.0755228117731585,0.0782530103031409,0.0439905576694676,,,
0.878880023956299,0,0.0667390008853675,0.0498942121737256,0.10736115066542,0.0755081490287958,0.0783151258009822,0.0440467499550283,,,
0.880880117416382,0,0.0668109064472802,0.0499321430840663,0.107411486793934,0.0754696369730993,0.0784112159503956,0.0441296972787019,,,
0.882883071899414,0,0.0668589626978591,0.0499567970582005,0.107441952221626,0.0754112765683265,0.0784793887709843,0.0441865824683407,,,
0.884883165359497,0,0.0668422435930066,0.0499445035987501,0.107420673360905,0.075350278657708,0.0784689505063236,0.0441753842443686,,,
0.886886119842529,0,0.0667763730020968,0.0499133229152349,0.107370739563792,0.0753436848930937,0.0783921275606307,0.0441039704208339,,,
0.888885974884033,0,0.066704758012862,0.049880532906119,0.107324471452769,0.0753959209198857,0.0782986749170631,0.0440268345507186,,,
0.890889167785645,0,0.066667743524044,0.049859030527953,0.107308892286884,0.0754589081357608,0.0782471094426047,0.0439850367885872,,,
0.892889976501465,0,0.0666643907623757,0.0498513191761159,0.107311395682263,0.0754956097001564,0.0782374311372556,0.043980611143185,,,
0.894891977310181,0,0.066699751222104,0.0498610645366984,0.107334932069174,0.0754926369181439,0.0782789159749646,0.0440193020128372,,,
0.89689302444458,0,0.066739269106301,0.0498652890164005,0.107350354772848,0.0754348576587269,0.0783358011646034,0.0440680511674942,,,
0.898895978927612,0,0.0668154885548936,0.0499131664530237,0.107403686035119,0.0753955632919745,0.0784359146280187,0.0441585086773048,,,
0.900896072387695,0,0.0668384661481936,0.0499267116101636,0.107418304075993,0.0753399745035141,0.0784750525325599,0.0441836320380726,,,
0.902899026870728,0,0.0667823856213552,0.0498966485138713,0.107372862979515,0.075312526561323,0.078410992432951,0.0441229023483875,,,
0.904901027679443,0,0.0667129834548215,0.049865758403034,0.107326550165004,0.0753531620327427,0.0783208031440739,0.0440451853329164,,,
0.906902074813843,0,0.0666637872652754,0.0498405456352884,0.107299884533868,0.0754187644027191,0.0782511774600956,0.043988367198511,,,
0.908905029296875,0,0.0666490798174238,0.0498249664694031,0.107294095432054,0.075464317257919,0.0782255623609498,0.0439700164163132,,,
0.910905122756958,0,0.0666938280098233,0.0498459100539577,0.10733325568834,0.0754885465489085,0.0782768596144747,0.0440137587802123,,,
0.91290807723999,0,0.0667187949083799,0.0498381539986317,0.107341637592511,0.0754324213185813,0.0783200878882513,0.0440413631846146,,,
0.914908170700073,0,0.066791505133093,0.0498780518624844,0.107392621921613,0.0753890365825935,0.0784167144795316,0.0441273279937897,,,
0.916911125183105,0,0.0668256362468763,0.0498934298626697,0.107409296322977,0.0753285080586085,0.0784663353522224,0.0441688798867321,,,
0.918910980224609,0,0.0667906557668037,0.0498740732519714,0.107376685127817,0.0752847656947095,0.078430483154116,0.0441332512060703,,,
0.920914173126221,0,0.0667104800594425,0.0498355835480194,0.107319822289923,0.075296768581482,0.0783338789145802,0.0440487169085404,,,
0.922975063323975,0,0.0666488562999792,0.0498067050941831,0.107281801972604,0.075357051236278,0.0782507304252065,0.0439798288321291,,,
0.924978017807007,0,0.0666159321803966,0.0497810676432929,0.107263048859006,0.0754041240101008,0.0782064963229294,0.0439405791688656,,,
0.92697811126709,0,0.0666413014103533,0.049793249344021,0.107285802934862,0.0754389703797067,0.0782306809104301,0.0439716704454029,,,
0.928981065750122,0,0.0666876365766092,0.0498083144197839,0.107317564763733,0.0754206866527422,0.0782914329518596,0.0440252475768623,,,
0.930982112884521,0,0.0667490591703724,0.0498369023009422,0.107356993240952,0.0753722951259965,0.0783741344063442,0.0440943815224625,,,
0.932984113693237,0,0.0667985682843409,0.0498631432489327,0.107386475191888,0.0753164604683471,0.0784429777792666,0.0441514231743125,,,
0.934985160827637,0,0.066783503208578,0.0498514756383271,0.107367610319568,0.075259508223475,0.0784327853837949,0.0441368274851832,,,
0.936987161636353,0,0.0667311107195748,0.0498315155305285,0.10733039466505,0.0752654761392446,0.0783654172260067,0.0440784447286659,,,
0.938990116119385,0,0.0666817804195619,0.0498165845652323,0.107303192592048,0.0753319949307436,0.0782938245885163,0.0440195702337706,,,
0.940991163253784,0,0.0666479398784566,0.0497974067684897,0.107289490972697,0.075395786809419,0.0782467741664379,0.0439781971547839,,,
0.942994117736816,0,0.0666272198113465,0.0497717246141105,0.107275431725434,0.0754158810276843,0.078220220294025,0.0439536549393719,,,
0.94499397277832,0,0.0666604345036071,0.0497763961287017,0.1072969341036,0.0754069850333911,0.0782600063991554,0.0439906694281899,,,
0.946997165679932,0,0.0667090718995418,0.049791729425398,0.107323957362647,0.0753561348147553,0.0783269051703102,0.044049387460874,,,
0.948997020721436,0,0.0667870124324575,0.0498392268823656,0.107378965005751,0.0753161698956692,0.0784273986133812,0.0441384591625284,,,
0.950999975204468,0,0.0667763059468634,0.0498261064083703,0.107359921319475,0.0752419174005887,0.0784289855872375,0.0441328488746701,,,
0.953000068664551,0,0.0667190854810578,0.0497946798556661,0.107309965170618,0.0752141341822307,0.0783644561009951,0.0440737508623303,,,
0.955003023147583,0,0.0666502868116244,0.049764236779718,0.107263853521806,0.0752547696536505,0.0782749150127071,0.043998872518405,,,
0.957005977630615,0,0.0666225482967553,0.0497573971459147,0.107258690268837,0.0753346771400782,0.0782312397040414,0.0439660154540557,,,
0.959006071090698,0,0.0665845950346702,0.0497231989768981,0.107233186928414,0.0753629520968142,0.0781825352528733,0.0439214684273563,,,
0.96100902557373,0,0.0666128029361728,0.0497287198577785,0.107250956565256,0.0753726974573967,0.0782124418869545,0.0439506598056149,,,
0.963009119033813,0,0.0666570370384499,0.0497396051573283,0.10727601287079,0.0753292233144311,0.0782742444603735,0.0440033428672961,,,
0.965012073516846,0,0.0667408337284128,0.0497888013468744,0.107337927202931,0.0752933040610914,0.0783824492552816,0.0440959908480633,,,
0.967012166976929,0,0.0667833020428779,0.0498123824372747,0.107366984470723,0.0752441078715453,0.0784435365728779,0.0441433318428197,,,
0.969015121459961,0,0.0667364080830107,0.0497818946578377,0.10732402441788,0.0751968115802779,0.0783959050054437,0.0440954991096853,,,
0.971017122268677,0,0.0666522090616475,0.0497379511282386,0.107261975975272,0.0752061322577157,0.0782937575332829,0.0440033205155516,,,
0.973018169403076,0,0.0665918817033627,0.0497067257412345,0.107224313285865,0.0752662137468116,0.0782104972851869,0.0439338289420401,,,
0.975021123886108,0,0.0665575494238793,0.0496797248339325,0.107201045119887,0.0753088385234879,0.078162195165419,0.04389258997352,,,
0.977020978927612,0,0.0665612374617144,0.0496675654849488,0.107203637922244,0.0753231659916837,0.0781670007904769,0.0438950710171546,,,
0.979024171829224,0,0.0666070361861034,0.049680976531622,0.107235667972048,0.075302021241429,0.0782290715848293,0.0439472623404577,,,
0.981024026870728,0,0.0666735549776024,0.0497148841279607,0.107280550274915,0.0752588376711413,0.0783171374579832,0.0440254263908179,,,
0.98302698135376,0,0.0667344634812431,0.0497548266953023,0.10732301858938,0.0752122789874409,0.0783996600985122,0.0440995000719428,,,
0.985027074813843,0,0.0667238016991379,0.0497510492504894,0.10730947343224,0.0751615405275274,0.0783964861507995,0.044092146348017,,,
0.987030029296875,0,0.066673979660747,0.0497327655235249,0.107276571664401,0.0751709059084542,0.07833573410937,0.0440366469665345,,,
0.989030122756958,0,0.0666018952848786,0.049701003694654,0.107232449320847,0.0752253994614362,0.0782416779687021,0.0439572312184848,,,
0.99103307723999,0,0.0665577952930683,0.0496712982262729,0.107207303608335,0.0752789765928956,0.0781823564389177,0.0439087502847612,,,
0.993033170700073,0,0.0665561859674675,0.0496620893075573,0.10720893528568,0.0753119230642227,0.0781729016510131,0.0439072750696272,,,
0.995036125183105,0,0.0665775318834224,0.0496573507377327,0.10721816655614,0.075294265186103,0.0781988073228368,0.0439332030931953,,,
0.997035980224609,0,0.0666227941659444,0.0496658891041147,0.107240563004084,0.0752393693017208,0.0782643426375798,0.0439844109397424,,,
0.999039173126221,0,0.0667051379925177,0.0497187733314959,0.107302611446692,0.0752040758972258,0.0783708486999093,0.0440781988594769,,,
1.00103902816772,0,0.0666954373354241,0.0497034847382885,0.107282427821449,0.0751286387596892,0.0783732626883105,0.0440695487343727,,,
1.00304198265076,0,0.0666660000879765,0.0496969580289075,0.107260836036305,0.0751237437276535,0.0783367846413594,0.0440365352078122,,,
1.00504207611084,0,0.0666060303576029,0.0496775567147203,0.107225587335299,0.0751735657660444,0.0782549996083974,0.0439709775413248,,,
1.00704503059387,0,0.0665744473426875,0.0496702923977724,0.107214344407838,0.0752505898774373,0.0782045740729063,0.0439330689827286,,,
1.0090479850769,0,0.0665444065981396,0.0496398046183353,0.107193601988983,0.0752771213981058,0.078166710217799,0.0438944228165654,,,
1.0110490322113,0,0.0665555154151339,0.0496290087257634,0.107197424137285,0.0752721369590923,0.0781821329214731,0.0439043916945924,,,
1.01305103302002,0,0.0666021411540677,0.0496413915921917,0.107225855556232,0.0752320826330283,0.0782471094426047,0.0439591981719969,,,
1.01505208015442,0,0.0666793664311607,0.0496847316246905,0.107280460867937,0.0751904636848526,0.0783479158100981,0.0440484486876069,,,
1.01705408096313,0,0.0667304401672411,0.0497194215320851,0.107315173127076,0.0751463189895533,0.0784168038865094,0.0441065408714462,,,
1.01905512809753,0,0.0666835238556294,0.0496924429765276,0.107272503646911,0.0750995814918973,0.0783659313161291,0.0440584399173784,,,
1.02105712890625,0,0.0666045998459577,0.0496536850516421,0.107214947904938,0.0751129925385705,0.078268723579493,0.0439740397303152,,,
1.02305817604065,0,0.0665363599701357,0.0496166258593352,0.107171049078828,0.075166480263052,0.0781792495464384,0.0438983120201006,,,
1.02506113052368,0,0.0665144105570806,0.0496000408649493,0.107160946090334,0.0752184033654217,0.0781444478803215,0.0438691429935864,,,
1.02706098556519,0,0.0665172268768819,0.0495901613939001,0.107163650651413,0.0752334460894401,0.0781453419500997,0.04387186990641,,,
1.0290641784668,0,0.0665721227612642,0.049611462606366,0.107201827430943,0.075216995205521,0.0782140512125553,0.0439332701484287,,,
1.0310640335083,0,0.06664820809939,0.0496515169324299,0.107254644603091,0.0751778125974909,0.0783124212399031,0.04402062076576,,,
1.03306698799133,0,0.0667135422484329,0.0496929794183945,0.107301091528069,0.075134226695803,0.0783993695258343,0.0440963261242302,,,
1.03506708145142,0,0.0667093624722198,0.0496925100317609,0.107293648397165,0.0750888973580476,0.0784027669909915,0.0440926604381395,,,
1.03707003593445,0,0.0666378368899628,0.0496554284877096,0.10723828312615,0.0750832647184449,0.0783152599114489,0.0440131329313675,,,
1.03907012939453,0,0.0665702675664744,0.0496259688885175,0.107195032500629,0.075138495878994,0.0782236401109266,0.0439369134827749,,,
1.04107308387756,0,0.0665176962635155,0.0495896696555221,0.107161013145568,0.0751858815772392,0.07815517671766,0.0438791789268469,,,
1.04307413101196,0,0.0665078838476996,0.0495702683413349,0.107152251261741,0.0752083227286724,0.0781380999848962,0.0438627056911833,,,
1.04507613182068,0,0.0665459265167626,0.0495787396524834,0.107177754602165,0.0751983985541342,0.0781838763575406,0.0439037434940032,,,
1.04707908630371,0,0.066620469584521,0.0496165364523573,0.107230102387679,0.0751637980537174,0.0782788265679868,0.043989149509567,,,
1.04907917976379,0,0.0666821827509621,0.0496541544382756,0.107274425896934,0.0751147136228935,0.0783640537695949,0.0440618373825356,,,
1.05108213424683,0,0.0666655977565763,0.0496343507926882,0.107251560062356,0.0750366166277667,0.0783585328887144,0.0440462582166503,,,
1.05308198928833,0,0.0666250516921343,0.0496181234262137,0.107221876945719,0.0750240549473828,0.0783124212399031,0.0440011523963395,,,
1.05508518218994,0,0.066570200511241,0.0496008678794942,0.107189086936603,0.0750756874770746,0.0782368276401553,0.0439399756717653,,,
1.05708599090576,0,0.066521451356584,0.0495746716349926,0.107160208482767,0.07513722182956,0.0781688559852667,0.0438833810548045,,,
1.05908799171448,0,0.0665118624582127,0.049562713451709,0.107156989831566,0.0751808524347368,0.0781531650606591,0.0438718028511766,,,
1.06108903884888,0,0.0665556495256006,0.0495829864839299,0.107194026672128,0.0751985550163454,0.0782035458926613,0.0439176909825433,,,
1.06309103965759,0,0.0665989225028661,0.0495940058939464,0.107221161689897,0.0751563102193249,0.0782641638236241,0.0439697034918908,,,
1.06509208679199,0,0.0666510691226803,0.04961519534769,0.107251940042012,0.0750981509802521,0.0783373434349708,0.0440308355129761,,,
1.06709504127502,0,0.0666848426085523,0.0496314674176535,0.107269262643965,0.0750394105958236,0.078386986659406,0.0440682746849387,,,
1.06909513473511,0,0.0666498844802242,0.0496152624029234,0.10723888662325,0.0750058606273962,0.0783500392258214,0.0440323330798546,,,
1.07109808921814,0,0.0665625562146373,0.0495685472570118,0.107172792514896,0.0750160306711233,0.0782455224687484,0.0439380087182532,,,
1.07309818267822,0,0.0665048887139426,0.0495400487828313,0.107140717761602,0.0750768274160418,0.0781685430608443,0.0438722498860657,,,
1.07510113716125,0,0.0664773960682626,0.0495177193901204,0.107126144424217,0.075121955588097,0.078127438202791,0.043837850551349,,,
1.07710099220276,0,0.0665062968738433,0.0495303257739932,0.107151156026263,0.0751545891350018,0.0781544838135819,0.0438694112145199,,,
1.07910394668579,0,0.0665470888074742,0.0495364278002295,0.10717567588993,0.0751251742392986,0.0782081056485302,0.0439119689359628,,,
1.0811071395874,0,0.0666105230582384,0.0495641663150986,0.107218233611373,0.0750735417096069,0.0782942716234054,0.0439825557449526,,,
1.08310699462891,0,0.0666525666895588,0.0495841934781305,0.107240987687229,0.0750129908338774,0.0783568118043914,0.0440378092572462,,,
1.08510994911194,0,0.0666193743490427,0.0495595618557408,0.107204688454233,0.0749488189755462,0.0783303920424452,0.0440103389633106,,,
1.08711004257202,0,0.0665596728396026,0.049533455018217,0.107161773104879,0.0749557480163274,0.0782583076665768,0.04394511657299,,,
1.08911299705505,0,0.0664995242952733,0.0495104103696835,0.107127552584118,0.0750184446595245,0.0781775284621153,0.043878106043113,,,
1.09111309051514,0,0.0664878343329232,0.049510186852239,0.107131352380675,0.0750943288319503,0.078152181583903,0.0438602469992932,,,
1.09311604499817,0,0.0664729257193715,0.0494879915699949,0.107118969514247,0.0751125455036814,0.0781313497580707,0.0438427679351292,,,
1.09511613845825,0,0.0664892424928239,0.0494766145320671,0.107123171642205,0.0750841587882231,0.0781569872089609,0.0438605599237156,,,
1.09711909294128,0,0.0665693958484406,0.04951691472732,0.10717938627951,0.0750515922965517,0.0782581065008767,0.0439465247328907,,,
1.09912204742432,0,0.0666228612211777,0.0495452790910338,0.107213584448526,0.0749978139993923,0.07833347658318,0.0440108307016886,,,
1.1011221408844,0,0.0666128476396617,0.0495321586170386,0.10719619479134,0.0749258637339906,0.0783351082605253,0.0440066509254755,,,
1.10312509536743,0,0.0665754084676991,0.049522167387267,0.107168970366594,0.0749213486816107,0.0782905165303369,0.0439682953319902,,,
1.10512495040894,0,0.0664997478127179,0.0494865610583497,0.10711657787759,0.0749601066064962,0.0781913865436776,0.0438840069036492,,,
1.10712814331055,0,0.0664635826901892,0.0494692831598858,0.107099523496571,0.0750302240288525,0.0781351719063725,0.0438389457868273,,,
1.10912799835205,0,0.0664512221755054,0.0494539945666784,0.107093689691268,0.0750705465758498,0.0781155917782297,0.0438212879087076,,,
1.11113095283508,0,0.0664520938935392,0.0494327604094458,0.107089465211566,0.0750562861628874,0.0781216267492326,0.0438255347401541,,,
1.11313104629517,0,0.0665005301237738,0.0494460596973967,0.107118745996803,0.0750156730432121,0.078187720857587,0.0438829340199153,,,
1.1151340007782,0,0.0665803929067126,0.0494972004887105,0.107177106401575,0.0749802231765059,0.0782892871843919,0.0439752243727713,,,
1.1171350479126,0,0.066610456003005,0.0495179652593094,0.107195345425051,0.0749259084374796,0.078335242370992,0.044017871501192,,,
1.11913704872131,0,0.0665668701013172,0.0494942724101868,0.107158979136822,0.0748865246637493,0.0782934446088606,0.0439750455588157,,,
1.12114000320435,0,0.0665024747255414,0.0494687467180189,0.107114834441523,0.0749152913588633,0.0782118830933431,0.0439031847003919,,,
1.12314105033875,0,0.0664571230360416,0.0494515582265327,0.107090761612745,0.0749892532812659,0.0781452525431219,0.0438499428450993,,,
1.12514400482178,0,0.066411681939564,0.0494136273161921,0.107060072667607,0.0750257089764725,0.078088412056972,0.0437987797020411,,,
1.12714409828186,0,0.0664248918205371,0.0494100286853348,0.107073550769514,0.0750427633574919,0.0781008843303781,0.0438139118330374,,,
1.12914705276489,0,0.066479430077008,0.0494306816972115,0.107110833479265,0.0750219091799151,0.078167939563744,0.0438770555111236,,,
1.13114714622498,0,0.0665440266184839,0.0494600518894257,0.107152161854763,0.0749716177548907,0.0782536361519857,0.0439454518491568,,,
1.13315010070801,0,0.0665883948312276,0.0494819342472475,0.107178425154498,0.0749143972890851,0.0783142987864374,0.0439961903090704,,,
1.13514995574951,0,0.0665879477963385,0.0494846164565821,0.107172725459662,0.0748767122479334,0.0783193502806843,0.0439977325794378,,,
1.13715314865112,0,0.0665203784728501,0.0494535028283003,0.107123730435816,0.0748810708381022,0.0782391075180897,0.0439236812500574,,,
1.13915300369263,0,0.0664506857336385,0.0494217633511738,0.107079876313195,0.0749371960684295,0.0781488064704903,0.0438455171996972,,,
1.14115595817566,0,0.0664149452942545,0.049398897516596,0.107062039621119,0.0749941930167905,0.0780991855977995,0.0438021995189428,,,
1.14315700531006,0,0.0664068986662505,0.0493799432372979,0.107058061010606,0.075017192961835,0.0780880320773163,0.043792834138016,,,
1.14515900611877,0,0.0664738644926386,0.0494164883394823,0.107110028816465,0.0750292405520964,0.0781652797061538,0.0438665501912296,,,
1.14716005325317,0,0.0665256311327971,0.049435666136225,0.107139644877868,0.0749798431968502,0.0782351065558322,0.0439263187559031,,,
1.14916205406189,0,0.0665725027409199,0.0494558497614681,0.107167875131115,0.0749200522804323,0.0783053357369108,0.0439817734338967,,,
1.15116310119629,0,0.0665872995957493,0.0494650586801837,0.107172993680596,0.0748682409367849,0.0783311072982678,0.0439996995329499,,,
1.15316605567932,0,0.0665463511999072,0.0494533687178336,0.107143489377915,0.074863681180916,0.0782798100447428,0.0439580805847741,,,
1.1551661491394,0,0.0664700870478257,0.0494169577261159,0.107092505048812,0.0749032214168574,0.0781823117354288,0.043874619170978,,,
1.15716910362244,0,0.0664167334338109,0.0493868275745902,0.10706179375193,0.0749624758914084,0.078111188484572,0.0438168846150499,,,
1.15917205810547,0,0.0663879890904414,0.0493569656439979,0.107041565423198,0.0749890521155658,0.0780760291905438,0.0437815018035772,,,
1.16117215156555,0,0.06641943799489,0.0493632688359343,0.107063671298465,0.0749946624034241,0.0781136695282065,0.0438159458417828,,,
1.16317510604858,0,0.0664770831438402,0.0493855982286451,0.107099299979126,0.0749586313913621,0.0781864021046641,0.0438806988454698,,,
1.16517496109009,0,0.0665475358423633,0.0494248031884197,0.107146819787838,0.0749131008879067,0.0782795641755538,0.0439600251865417,,,
1.1671781539917,0,0.0665758555025882,0.0494393541740601,0.107162354250235,0.0748543828552226,0.0783242229609755,0.04399538564627,,,
1.1691780090332,0,0.0665303920543661,0.0494141414063145,0.107123104586971,0.0748159602065039,0.0782756302685297,0.0439470164712687,,,
1.17118096351624,0,0.0664459248120695,0.0493674933156363,0.107063805408931,0.0748317405380893,0.0781719405260015,0.0438549943393462,,,
1.17318105697632,0,0.066421941390269,0.0493667557080693,0.107061525530997,0.0749183758995981,0.0781284663830359,0.0438197679900846,,,
1.17518401145935,0,0.0663795624827817,0.0493338315884866,0.107032468263205,0.0749542951529378,0.078071424731186,0.0437734104720843,,,
1.17718410491943,0,0.0663763885350691,0.0493157266754778,0.107027617934658,0.074959167833229,0.078069167204996,0.0437745504110516,,,
1.17918705940247,0,0.0664453213149692,0.0493444933705918,0.107075741240471,0.0749468743737786,0.0781547967380043,0.0438471712287869,,,
1.18118810653687,0,0.0665056710249985,0.0493727459755833,0.107115728511301,0.0748968064661987,0.0782362464947994,0.043916886319743,,,
1.18319010734558,0,0.0665341247956902,0.0493832959989662,0.107128424302152,0.0748276948723429,0.0782819111087216,0.0439561806864954,,,
1.18519115447998,0,0.0665125553622908,0.0493714495744049,0.107104373825118,0.0747770458194072,0.0782651473003801,0.0439368464275415,,,
1.18719410896301,0,0.0664544631784514,0.0493500142514723,0.107063112504853,0.0747924238195925,0.0781950075262794,0.0438757144064563,,,
1.18919396400452,0,0.0663771037908916,0.049307389474796,0.107011837603073,0.0748413517882051,0.0780961904640425,0.0437883414373805,,,
1.19119715690613,0,0.0663587753604383,0.0492993428467921,0.107006070853003,0.0749065741785257,0.0780645850973827,0.0437642909603466,,,
1.19319701194763,0,0.0663658385116861,0.0492971970793244,0.107016375007197,0.0749386712835635,0.0780658367950722,0.0437704600418162,,,
1.19519996643066,0,0.0664011989714144,0.0493037684921942,0.107039754931898,0.0749245226293233,0.0781104285252605,0.0438119225277808,,,
1.19720005989075,0,0.0664609898878324,0.0493286236320285,0.107078021118405,0.0748796626782015,0.0781914983023999,0.0438800282931362,,,
1.19920301437378,0,0.0665320013799669,0.0493725671616277,0.107131151214975,0.0748398989248155,0.0782859120709791,0.0439596899103749,,,
1.20120310783386,0,0.0665243123798743,0.0493653698999131,0.107119237735181,0.0747752800315952,0.0782888625012472,0.0439586840818744,,,
1.20320606231689,0,0.0664829393008875,0.0493531881991849,0.107089509915055,0.0747726872292384,0.0782368723436442,0.0439154111046089,,,
1.20520901679993,0,0.0664154593843769,0.049323393323826,0.107045812254645,0.0748203635001616,0.0781495664298018,0.0438392363595052,,,
1.20720911026001,0,0.0663680960378761,0.0492950736636011,0.107018587829898,0.074882680163703,0.0780843216877367,0.0437834687570892,,,
1.20921206474304,0,0.0663414751102299,0.0492672010382654,0.107002226352957,0.07491091041695,0.0780502799809313,0.0437500976026175,,,
1.21121215820313,0,0.0663663526018086,0.0492678939423435,0.107019213678743,0.0749090999256492,0.0780809689260684,0.0437759809226967,,,
1.21321511268616,0,0.0664214273001465,0.0492871611460639,0.107052540129726,0.0748668104251397,0.0781525168600699,0.0438360400600481,,,
1.21521615982056,0,0.0664967526789609,0.0493319540419524,0.107104217362907,0.0748247667938193,0.0782481823263386,0.0439218707587565,,,
1.21721816062927,0,0.0665188138507383,0.049343375783369,0.107113560392089,0.074766384037302,0.0782870967134353,0.0439543701951945,,,
1.21921896934509,0,0.0664788042281633,0.0493255167395492,0.107080524513784,0.0747370361968322,0.0782459918553819,0.0439136676685414,,,
1.2212221622467,0,0.0663787578199813,0.0492686315499105,0.107004327416936,0.0747440769963356,0.0781266558917351,0.0438068039783006,,,
1.22322201728821,0,0.0663393293427622,0.0492552652067262,0.106986647187072,0.0748184636018829,0.0780680272660288,0.043761318178334,,,
1.22522497177124,0,0.06632341490071,0.0492420776774976,0.106981930968992,0.0748706996286749,0.0780411604691935,0.0437401063728459,,,
1.22722506523132,0,0.066339664618929,0.049240624814108,0.106994850277287,0.0748877987131833,0.0780583489606796,0.0437551714486088,,,
1.22922801971436,0,0.0663984944103354,0.0492643400149751,0.107034636382417,0.0748672351082844,0.0781335178772828,0.043820617356374,,,
1.23122811317444,0,0.0664376323148766,0.049275873515114,0.107052674240193,0.0748039349679869,0.0781916771163556,0.0438722945895546,,,
1.23323106765747,0,0.0665227254060179,0.0493342115681424,0.107116421415379,0.0747774928542963,0.0782946068995722,0.0439693235122351,,,
1.23523116111755,0,0.0665222336676399,0.0493442922048917,0.107114610924078,0.074746893316137,0.0782976914403071,0.0439693905674685,,,
1.23723411560059,0,0.0664179404280115,0.0492815061547167,0.10703289294635,0.0747289448653394,0.078179182491205,0.0438586823771813,,,
1.23923397064209,0,0.0663542603080583,0.0492503031194571,0.106996236085443,0.0747880428776792,0.0780955646151977,0.0437867544635242,,,
1.2412371635437,0,0.0663099815022923,0.0492168202062631,0.106969257529885,0.0748335957328791,0.0780372936174027,0.0437359042448883,,,
1.24324011802673,0,0.0662940223567512,0.0491949378484413,0.106955198282623,0.0748464479859409,0.0780182946346157,0.0437211520935478,,,
1.24523997306824,0,0.0663562049098259,0.0492260067732342,0.107000952303523,0.0748517453493768,0.0780901331412951,0.0437919177164933,,,
1.24724316596985,0,0.0664185662768562,0.049253633529381,0.10704212421681,0.0748090311657228,0.0781707782352898,0.0438606493306934,,,
1.24924302101135,0,0.0664760549635953,0.0492837413291623,0.107081373880073,0.0747567951389307,0.0782513115705623,0.0439248658925135,,,
1.25124597549438,0,0.0664828945973986,0.0492893963205095,0.10708005512715,0.0747042461877163,0.0782677177509925,0.0439337618868067,,,
1.25324606895447,0,0.0664146323698321,0.0492534323636809,0.107026209774758,0.0746853366119071,0.0781895984041212,0.043864605589462,,,
1.2552490234375,0,0.0663402010607959,0.0492176472208079,0.106975963053222,0.0747279613885834,0.0780936200134301,0.0437820158936996,,,
1.25724911689758,0,0.0663055111534013,0.0491991623281434,0.106960115666403,0.0747960671539387,0.0780420098354828,0.0437373347565335,,,
1.25925207138062,0,0.066272162350674,0.0491615666939696,0.106936422817281,0.0748152225989369,0.07800191080593,0.0436972357269807,,,
1.2612521648407,0,0.0663253595024776,0.0491889475809273,0.106980075774202,0.074834914485802,0.0780622605159593,0.0437555290765201,,,
1.26325511932373,0,0.0663909842241984,0.0492214246656209,0.107022119405522,0.0748054772383544,0.0781422350576204,0.0438302509582342,,,
1.26525497436523,0,0.0664348830503086,0.0492364450378949,0.107046549862212,0.0747412606765343,0.078206719840374,0.0438819281914149,,,
1.26725816726685,0,0.066464946146601,0.0492532535497252,0.107062866635664,0.0746862753851742,0.078251982122896,0.0439179144999879,,,
1.26925897598267,0,0.0664407615591003,0.0492460786397551,0.107042370085999,0.0746652647453862,0.0782269258173616,0.0438903547990745,,,
1.27126097679138,0,0.066370934709422,0.049211366380616,0.106996861934288,0.0746916845073324,0.0781372282668624,0.0438080333242456,,,
1.27326202392578,0,0.0663199280285749,0.04918760647626,0.106966932948462,0.074757398636031,0.0780637357310934,0.0437464319165268,,,
1.2752640247345,0,0.0662741516559305,0.049150346118253,0.10693315946259,0.0747873052701122,0.0780052188641094,0.0436977498171031,,,
1.27726697921753,0,0.066290624891594,0.0491495191037082,0.106947822206953,0.0748034208778645,0.0780257601172638,0.0437179781458352,,,
1.27926802635193,0,0.0663558919854035,0.0491777046534663,0.106996705472077,0.0747893616306021,0.0781098920833936,0.0437901295769369,,,
1.28127002716064,0,0.0664318879165516,0.0492210893894541,0.107050617879703,0.0747525259557397,0.078208932663075,0.0438758932204119,,,
1.28327107429504,0,0.0664585311959423,0.0492304771221253,0.107062263138564,0.0746842413764288,0.0782546196287417,0.0439093537818615,,,
1.28527402877808,0,0.0664267470153269,0.0492100252759487,0.107028355542225,0.0746305077827582,0.0782229472068485,0.0438817940809481,,,
1.28727412223816,0,0.0663585741947382,0.0491787328337112,0.106976968881723,0.0746389343904179,0.0781370718046512,0.0438111178649804,,,
1.28927707672119,0,0.0663078133830802,0.0491612984730361,0.106950124436632,0.074706883693562,0.0780664626439169,0.0437549926346532,,,
1.29127717018127,0,0.0662665073593268,0.0491344540279453,0.106924799910164,0.0747566833802084,0.0780093986403225,0.0437084115992083,,,
1.29328012466431,0,0.0662456978852389,0.0491042791729306,0.1069075220117,0.0747619583918999,0.0779859740121334,0.0436831988314627,,,
1.29527997970581,0,0.0663090650807697,0.0491341187517785,0.106955153579134,0.0747600584936212,0.0780628416613152,0.0437515504660071,,,
1.29728317260742,0,0.0663736392705011,0.0491644053655154,0.106998314797677,0.0747180372140452,0.0781458783919666,0.0438224278476748,,,
1.29928302764893,0,0.0664097373377964,0.0491748883336649,0.107015302123463,0.074650870221957,0.0782020259740384,0.0438659466941293,,,
1.30128598213196,0,0.066424936524026,0.0491861089093815,0.107023125234023,0.0746075078377137,0.0782284904394734,0.043886599706006,,,
1.30328702926636,0,0.0663657491047083,0.0491591080020795,0.106977751192779,0.0745985224364427,0.0781565178223274,0.0438251324087539,,,
1.30528903007507,0,0.066298135077731,0.0491277038011198,0.106933964125391,0.0746459528381768,0.0780673567136951,0.0437457837159376,,,
1.30729007720947,0,0.0662796054815776,0.0491255803853965,0.106933114759101,0.0747251674205264,0.0780342761319013,0.043720816817381,,,
1.30929207801819,0,0.0662490059434183,0.0490957184548042,0.106911277104768,0.0747465580399702,0.0779962334628383,0.0436874903663981,,,
1.31129312515259,0,0.0662816171385786,0.0491021557572074,0.106934344105046,0.0747469827231148,0.078035147849935,0.0437227390674042,,,
1.31329607963562,0,0.0663448949271315,0.0491318835773329,0.1069758512945,0.0747124716296758,0.0781160388131188,0.0437951810711838,,,
1.3152961730957,0,0.0663984497068464,0.0491602255893023,0.107006629646615,0.0746561675853929,0.0781887713895764,0.0438599564266153,,,
1.31729912757874,0,0.0664191250704676,0.0491702838743071,0.107016620876386,0.0745973824974754,0.0782264117272391,0.0438884549007958,,,
1.31929898262024,0,0.0663613011075617,0.0491368009611131,0.106967514093818,0.0745589374970123,0.0781641844706755,0.0438329555193133,,,
1.32130217552185,0,0.0663063605196906,0.0491167737980811,0.106933047703868,0.0746006458521659,0.0780911389697956,0.043767599018526,,,
1.32330203056335,0,0.0662523363533421,0.0490880741582005,0.106900637674408,0.074663387198852,0.0780174005648375,0.0437029577735612,,,
1.32530498504639,0,0.0662207086349378,0.0490619449689323,0.10688349388641,0.0747042014842274,0.0779747757881613,0.043669072528967,,,
1.32730507850647,0,0.0662569408126999,0.0490764959545727,0.106917066206582,0.0747325881996856,0.0780126172915241,0.0437070481427965,,,
1.3293080329895,0,0.0662970845457416,0.0490826426842979,0.106939194433593,0.0746962442632013,0.0780670214375283,0.0437521092596184,,,
1.33130812644959,0,0.066360183520339,0.0491130634085016,0.10698117100968,0.0746491714893784,0.0781518910112251,0.0438244395046758,,,
1.33331108093262,0,0.0664206226373461,0.0491529612723543,0.107024287524734,0.0746067478784022,0.0782319773116085,0.0438939981334207,,,
1.33531212806702,0,0.0663923476806101,0.0491376950308913,0.106995923161021,0.0745588033865456,0.0782052669769844,0.0438654102522624,,,
1.33731412887573,0,0.0663448055201537,0.0491239710597957,0.106963669593772,0.0745848208170916,0.0781405586767863,0.0438110508097471,,,
1.33931517601013,0,0.0662937317840733,0.0491070507892431,0.106939641468482,0.0746570169516822,0.0780710447515303,0.0437543891375529,,,
1.34131813049316,0,0.0662402664113362,0.0490648059922225,0.106904325712243,0.0746970489260017,0.0780029613379194,0.043692787729834,,,
1.34331798553467,0,0.0662200380826042,0.0490335806052185,0.106885617302134,0.07470286037956,0.0779791120265856,0.0436698995435118,,,
1.34532117843628,0,0.0662625063970693,0.0490466787274693,0.106915121604815,0.0746905669201096,0.0780363324923912,0.0437226049569374,,,
1.34732103347778,0,0.066335149566549,0.0490853248936325,0.106971068021186,0.074658380408094,0.0781384576128075,0.0438114084376584,,,
1.34932398796082,0,0.066386156247396,0.0491145386236356,0.107010451794917,0.0746088712941255,0.0782156828899006,0.0438792459820802,,,
1.35132598876953,0,0.0663708453024441,0.0491002111554398,0.106992302178419,0.074546107595695,0.0782123077764878,0.0438692324005642,,,
1.35332703590393,0,0.0663301874792799,0.0490894823181012,0.106957098180902,0.0745495274125966,0.0781518686594807,0.0438234560279198,,,
1.35532999038696,0,0.0662597571325013,0.0490597992014646,0.106899900066841,0.0745940967910405,0.078045943742507,0.0437393017100455,,,
1.35733008384705,0,0.0662068505533756,0.049026338640015,0.106859935147755,0.0746416613032414,0.077966416235735,0.0436764486046372,,,
1.35933303833008,0,0.0661969487305819,0.0490136428491643,0.106858035249476,0.0746776923153034,0.0779494512616934,0.043669072528967,,,
1.36133313179016,0,0.0662307669199427,0.0490197001719117,0.106890735851614,0.0746792345856708,0.0779984015820505,0.0437055952794069,,,
1.36333608627319,0,0.0662955199236298,0.0490477069077142,0.10694033437256,0.0746472715910997,0.0780872274145159,0.0437804065680989,,,
1.36533617973328,0,0.0663554002470255,0.0490799828267077,0.106980791030024,0.0745963990207194,0.0781699288690005,0.0438501663625439,,,
1.36733913421631,0,0.0663700629913882,0.0490843861203654,0.106983450887615,0.0745313107408656,0.078197443866425,0.0438713558162875,,,
1.36933898925781,0,0.0663169105430735,0.0490540995066285,0.106938434474282,0.074495100914848,0.0781393740343301,0.0438182033679728,,,
1.37134218215942,0,0.0662482459841068,0.0490247069626697,0.106894245075493,0.0745295449530536,0.0780511293472206,0.0437478847799164,,,
1.37334203720093,0,0.0662162829895357,0.0490169062038548,0.10688865713938,0.0746109947098487,0.0780003461838181,0.043714044238811,,,
1.37534499168396,0,0.066180363736196,0.0489851443749838,0.106867914720525,0.0746467575009772,0.0779535863344176,0.0436730958429689,,,
1.37734603881836,0,0.0661804754949183,0.0489676429590753,0.106863444371634,0.0746455281550322,0.0779544580524514,0.0436730287877356,,,
1.37934803962708,0,0.066236377207801,0.0489905311453976,0.106899631845907,0.0746180578610966,0.0780249778062079,0.0437384076402673,,,
1.38134908676147,0,0.0663094674121699,0.0490302725470391,0.106951063209899,0.0745755671948871,0.0781203303480542,0.043820863225563,,,
1.38335108757019,0,0.0663494099795115,0.0490515961112495,0.106976186570667,0.0745189055226929,0.0781798306917942,0.0438678018889191,,,
1.38535213470459,0,0.0663347248834044,0.0490476845559698,0.106960674460015,0.0744836568216868,0.0781682748399108,0.0438542790835236,,,
1.38735413551331,0,0.0662815277316007,0.0490310995615839,0.106925850442153,0.0745110824121335,0.0780982915280213,0.0437987349985522,,,
1.38935518264771,0,0.066207118774309,0.0489913805116869,0.106878151819486,0.0745642125087038,0.078000390887307,0.0437162794132566,,,
1.39135718345642,0,0.0661636893348324,0.0489578975984928,0.106849429827861,0.0746050044423347,0.0779415834476451,0.0436650939184539,,,
1.39335799217224,0,0.0661619682505093,0.0489456264907868,0.106847932260982,0.0746244504600108,0.0779377389475988,0.0436633504823864,,,
1.39536094665527,0,0.0662145842569571,0.0489661453921968,0.106885684357367,0.0746137886779056,0.0780029166344305,0.0437216214801814,,,
1.39736104011536,0,0.0662779514524879,0.0489930792442655,0.106926118663087,0.0745686158023615,0.0780875850424272,0.0437920741787045,,,
1.39936399459839,0,0.0663379882380948,0.049028842035394,0.106965860064728,0.0745223029878501,0.0781693700753892,0.0438627950981611,,,
1.40136408805847,0,0.0663347025316599,0.0490261821778038,0.106957344050091,0.0744683905802239,0.0781761203022147,0.0438609622551158,,,
1.4033670425415,0,0.0662764315338649,0.0489974378344342,0.106911120642557,0.0744614391876983,0.0781082604060483,0.0437954939956062,,,
1.40536713600159,0,0.0661896173584005,0.0489501191914224,0.10684862516506,0.0744959502811373,0.0779961217041161,0.0436992473839816,,,
1.40737009048462,0,0.0661664833028893,0.048941804342485,0.106842657249291,0.0745681911192168,0.0779526922646394,0.043668781956289,,,
1.40936994552612,0,0.0661197234534888,0.0488951339000623,0.106805218077328,0.0745742260902197,0.0778998750924915,0.0436204574847767,,,
1.41137313842773,0,0.0661509041370039,0.0489021076443324,0.106825759330482,0.0745695098721397,0.0779389906452883,0.0436587683747731,,,
1.41337299346924,0,0.066225380149529,0.0489397256302506,0.106878710613097,0.0745430230549601,0.0780322197714114,0.0437412463118132,,,
1.41537594795227,0,0.0663133342639606,0.048998309552468,0.106946056419141,0.0745141669528683,0.0781450960809107,0.043840108077539,,,
1.41737604141235,0,0.0663335402409482,0.0490144251602203,0.106956315869846,0.0744647472458776,0.078179718933072,0.043868338330786,,,
1.41937899589539,0,0.0662739057867415,0.0489780588719915,0.106904549229687,0.0744304820216277,0.0781135577694843,0.0438079439172678,,,
1.42137908935547,0,0.0662352819723227,0.0489720239009886,0.106888053642279,0.0744859814031102,0.0780603159141917,0.0437625475242791,,,
1.4233820438385,0,0.0661857281548653,0.0489478393134879,0.106861522121611,0.0745509132207529,0.077990667878469,0.0437032036427502,,,
1.42538213729858,0,0.0661294911658157,0.0488964750047296,0.106815745748966,0.0745699569070288,0.0779194105171455,0.0436402834821085,,,
1.42738509178162,0,0.0661543239539056,0.0488988889931308,0.106834141234653,0.0745842173199913,0.0779453161889692,0.0436655633050875,,,
1.42938613891602,0,0.0662030284050737,0.0489135517374935,0.106863958461757,0.0745511814416863,0.0780081692943775,0.0437213532592479,,,
1.43138813972473,0,0.0662563149638551,0.0489360822959044,0.106896390842961,0.0744957267636927,0.0780834723214474,0.043783356998367,,,
1.43338894844055,0,0.0663157929558507,0.0489751084417234,0.106937093369614,0.0744541078155169,0.0781623516276302,0.0438489593683433,,,
1.43539094924927,0,0.0662861992461919,0.0489608703805054,0.106908729005901,0.074412041832452,0.0781341213743831,0.0438185609958841,,,
1.43739414215088,0,0.0662157912511577,0.0489258675486884,0.10685785643552,0.0744251846581918,0.0780460555012292,0.0437414027740243,,,
1.43939399719238,0,0.0661612976981756,0.0489017276646766,0.10682935796134,0.0744906752694458,0.0779710206950928,0.0436779461715157,,,
1.44131112098694,0,0.0661343191426181,0.0488841144900458,0.106818651475746,0.0745467110927953,0.0779328439155631,0.0436473466333564,,,
1.44331097602844,0,0.0661582131574408,0.0488964303012407,0.106843439560347,0.0745846196513915,0.0779548156803627,0.0436729617325022,,,
1.44531416893005,0,0.0661882986054776,0.048898799586153,0.106860091609966,0.0745586692760788,0.077994646488982,0.0437061317212739,,,
1.44731402397156,0,0.0662506823242524,0.0489251969963547,0.106899989473818,0.0745128481999455,0.078076923260322,0.0437747739284961,,,
1.44931697845459,0,0.0663014654876549,0.0489517285170231,0.106931594840478,0.0744583099434745,0.0781475100693119,0.0438332907954801,,,
1.45131707191467,0,0.0662828688362681,0.0489383621738389,0.106908639598923,0.0743974908468116,0.0781373623773292,0.0438227631238417,,,
1.45332002639771,0,0.0662172217628028,0.0489072708973015,0.106859063429721,0.0743897124397412,0.0780627075508484,0.0437576748439878,,,
1.45532298088074,0,0.0661631081894765,0.0488904400337267,0.106828329781095,0.0744513809026934,0.0779885668144902,0.0436997167706152,,,
1.45732307434082,0,0.0661256019622805,0.0488693176352164,0.106808704949463,0.0745131611243678,0.0779327098050964,0.0436554826683381,,,
1.45932602882385,0,0.0661142696278417,0.0488495810448624,0.106801306522048,0.0745397149967807,0.0779157895345437,0.04364104344142,,,
1.46132612228394,0,0.0661437515787782,0.0488535149518865,0.106821020760658,0.0745341494124114,0.0779540780727956,0.0436750851482254,,,
1.46332907676697,0,0.0661719147767919,0.0488515703501189,0.106832934240453,0.0744748949378604,0.0780002344250958,0.0437131278172884,,,
1.46532917022705,0,0.0662399981904028,0.0488875790104364,0.106880252883464,0.0744294985448716,0.0780913848389846,0.04378733560888,,,
1.46733212471008,0,0.0662774820658543,0.048914021124127,0.106906896162855,0.0743881478176293,0.0781436655692656,0.0438287533913557,,,
1.46933197975159,0,0.0662380759403796,0.048899291324531,0.106876408383418,0.0743724121895328,0.0780982021210435,0.0437905319083371,,,
1.4713351726532,0,0.0661541227882055,0.0488538949315423,0.106815768100711,0.074398541378801,0.0779946911924709,0.0436985321281591,,,
1.47333812713623,0,0.0661166612644984,0.0488399027395132,0.106797730242935,0.074472324487248,0.0779373366161986,0.0436536945287817,,,
1.47533798217773,0,0.0660929684153758,0.0488186015270473,0.106783134553806,0.0745122447028452,0.0779037419442823,0.0436225585487555,,,
1.47734117507935,0,0.0661197458052332,0.0488241000561833,0.106804793394183,0.0745273321303525,0.0779354143661755,0.0436496935665242,,,
1.47934103012085,0,0.066172853550059,0.0488421379139588,0.106839058618433,0.0744965314264931,0.0780032966140862,0.0437090150963086,,,
1.48134398460388,0,0.0662222732570497,0.0488615615798904,0.106868227644947,0.0744373887106644,0.0780744422166875,0.043768828364471,,,
1.48334407806396,0,0.0662611652924019,0.0488837568621346,0.106890959369059,0.0743815093495261,0.0781326238075046,0.0438155882138715,,,
1.485347032547,0,0.0662245531349842,0.0488640649752694,0.106856761200042,0.0743356882733927,0.0780965704436982,0.0437829323152223,,,
1.48734712600708,0,0.0661643151836771,0.0488417355825586,0.106818897344935,0.0743597387504266,0.0780229661492069,0.0437197886371361,,,
1.48935008049011,0,0.0661034737352698,0.0488118513002218,0.106783045146828,0.0744216754343123,0.0779399964737888,0.0436481959996457,,,
1.49135112762451,0,0.0660635535196726,0.0487792177533171,0.106758212358738,0.0744656189639114,0.0778850558859177,0.0436002515077891,,,
1.49335312843323,0,0.0660612065865048,0.0487643538432543,0.106756535977904,0.074482092199575,0.0778815913655271,0.0435986198304438,,,
1.49535417556763,0,0.0661248643547135,0.0487936122767463,0.106803206420327,0.0744774430367283,0.0779587719391313,0.0436665020783546,,,
1.49735713005066,0,0.0661863987071989,0.0488224236753492,0.106840511481823,0.074431331387917,0.0780388805912591,0.0437362171693107,,,
1.49935698509216,0,0.0662397076177249,0.0488542972629425,0.106875000223517,0.0743814199425483,0.0781106073392162,0.043802110111965,,,
1.50136017799377,0,0.0662324433007769,0.0488518385710524,0.106867132409469,0.0743317543663686,0.0781135130659953,0.0438000761032195,,,
1.50336003303528,0,0.0661814813234188,0.0488331301609433,0.10683036378984,0.0743363811774708,0.0780519116582765,0.0437470577653715,,,
1.50536298751831,0,0.0661147390144752,0.0488041399483848,0.106787783716653,0.0743912770618531,0.0779645386892007,0.0436699665987452,,,
1.50736308097839,0,0.0660817701914037,0.0487852303725756,0.10677211514379,0.0744571476527628,0.0779181811712004,0.0436293981825588,,,
1.50936603546143,0,0.0660840724210826,0.0487791730498282,0.106780519399705,0.0744971796270823,0.0779148284095321,0.0436298899209368,,,
1.51136612892151,0,0.0661106933487288,0.0487789048288947,0.106797394966769,0.0744866072519549,0.0779490265785487,0.0436577625462726,,,
1.51336908340454,0,0.0661453832561235,0.0487831069568523,0.10681335411231,0.0744288503442824,0.0780020225646523,0.0437059976108071,,,
1.51536917686462,0,0.0662165288587247,0.0488242341666501,0.10686442784839,0.0743862926228395,0.0780963692779981,0.043787089739691,,,
1.51737213134766,0,0.0662466813619949,0.0488448648267823,0.106881169304987,0.0743376775786492,0.078140938656442,0.0438196562313624,,,
1.51937317848206,0,0.0661825989106415,0.0488074033030752,0.106825312295593,0.0743035688166104,0.0780692566119738,0.0437532268468412,,,
1.52137517929077,0,0.0661117438807182,0.0487747250526816,0.106777211341525,0.0743397339391391,0.0779760498375952,0.0436743028371695,,,
1.5233781337738,0,0.0660796914791693,0.0487662760932775,0.106766303690231,0.0744189932249776,0.0779241937904589,0.0436372212931182,,,
1.52537798881531,0,0.0660572726794806,0.0487424714854326,0.106753384381936,0.0744572817632296,0.0778917837609987,0.0436064876444921,,,
1.52738118171692,0,0.0660888333426515,0.0487535132471935,0.106778619501426,0.0744712739552586,0.0779275242003827,0.0436369977756736,,,
1.52938199043274,0,0.0661280383024261,0.0487631468490537,0.106799920713892,0.0744297667658051,0.0779827330091873,0.0436839811425187,,,
1.53138399124146,0,0.0661790896867621,0.0487834645847636,0.106830788472985,0.0743707581604431,0.078056650228101,0.0437436603002143,,,
1.53338503837585,0,0.0662307445681983,0.0488166122217908,0.106867244168191,0.0743263452442104,0.0781293157493252,0.0438068039783006,,,
1.53538799285889,0,0.0662028719428625,0.0488034023408177,0.10684270195278,0.0742901801216817,0.0781054887897359,0.0437786184285424,,,
1.53738808631897,0,0.0661285970960375,0.0487643091397654,0.106787873123631,0.074304038203244,0.078014427782825,0.0436907984245775,,,
1.539391040802,0,0.0660842288832937,0.048747008889557,0.106767823608854,0.074375563785501,0.0779482219157484,0.0436346955459947,,,
1.54139113426209,0,0.0660217334057967,0.0486959798569655,0.106720817890265,0.0744035034660701,0.0778685826502541,0.0435680649957734,,,
1.54339408874512,0,0.0660201911354293,0.0486816747405141,0.106722069587954,0.0744191943906777,0.0778669956763978,0.0435682661614735,,,
1.5453941822052,0,0.0660835806827045,0.0487132577554295,0.106769432934455,0.0744157298702872,0.0779457408721138,0.0436416245867758,,,
1.54739713668823,0,0.0661363084478746,0.0487367270871076,0.10680021128657,0.0743658854801518,0.0780201945328944,0.0437064222939518,,,
1.54939794540405,0,0.0662051741725414,0.048781028244618,0.10685068152555,0.0743258758575768,0.0781097579729269,0.0437843628268674,,,
1.55139994621277,0,0.0661984686492048,0.0487806929684511,0.106840623240545,0.0742763220401194,0.0781095568072268,0.0437819488384663,,,
1.55340099334717,0,0.0661341850321513,0.0487528873983487,0.106792187010311,0.0742743327348629,0.0780321303644336,0.0437150500673115,,,
1.55540299415588,0,0.0660787303541577,0.0487355647963959,0.106761006326795,0.074340024511817,0.0779540333693067,0.0436549015229823,,,
1.55740404129028,0,0.0660319928565017,0.0487026853803021,0.106732418445637,0.0743930875531539,0.0778897497522533,0.0436012126328007,,,
1.559406042099,0,0.0660176430365614,0.0486783219788458,0.106720884945498,0.0744140087859641,0.077869856699688,0.0435789949988121,,,
1.5614070892334,0,0.0660612736417381,0.0486925823918083,0.106750970393535,0.0744138970272418,0.0779215115811243,0.0436237431912116,,,
1.56341004371643,0,0.0661260266454252,0.0487234501509011,0.106794757460923,0.0743757425994566,0.078005889416443,0.0436963416572024,,,
1.56541204452515,0,0.0661871586665104,0.0487582741687625,0.106836801092243,0.0743269487413107,0.0780871156557936,0.0437683589778374,,,
1.56741309165955,0,0.0662041683440409,0.048767773660156,0.106846233528403,0.0742741315691628,0.0781202409410764,0.0437904425013593,,,
1.56941509246826,0,0.0661496747910589,0.048739744572609,0.106803519344749,0.0742512433828406,0.0780617687775813,0.0437349431198768,,,
1.57141613960266,0,0.0660851006013275,0.0487113802088952,0.106760671050629,0.074293041144972,0.0779745969742056,0.043662299950397,,,
1.57341814041138,0,0.0660317246355682,0.0486806689120136,0.10672797044849,0.0743514015497448,0.0779011714936699,0.0435981504438103,,,
1.5754189491272,0,0.0659901950943703,0.0486404357719941,0.106695895695197,0.0743727921691885,0.0778473484930216,0.0435531116787328,,,
1.57742094993591,0,0.0660148937719934,0.0486446826034406,0.106714626457051,0.0743816881634817,0.0778762492986023,0.0435806713796462,,,
1.57942199707031,0,0.0660777915808906,0.0486742316096105,0.10675671479186,0.0743584870527371,0.0779564920611968,0.0436513252438695,,,
1.58142495155334,0,0.0661408682037435,0.0487093462001498,0.106797171449324,0.0743130683080039,0.0780405793238377,0.0437262706430281,,,
1.58342504501343,0,0.0661887456403668,0.048741264491232,0.106831704894508,0.0742690577231714,0.0781070534118478,0.0437876485333024,,,
1.58542799949646,0,0.0661546592300724,0.0487261994154691,0.106802848792416,0.0742325796762204,0.0780731458155091,0.0437543891375529,,,
1.58742809295654,0,0.0660647828656176,0.0486740304439104,0.106732686666571,0.0742351277750883,0.0779657009799124,0.0436529122177258,,,
1.58943104743958,0,0.0660175312778391,0.0486544056122787,0.106708658541281,0.0743034123543992,0.0778992268919023,0.043597301077521,,,
1.59143114089966,0,0.0659880046234136,0.0486306680596671,0.106692833506207,0.0743533014480235,0.0778545904582251,0.0435625664666374,,,
1.59343409538269,0,0.0659816343762439,0.0486114232076911,0.106685010395647,0.0743628456429059,0.0778442863040312,0.0435557044810896,,,
1.59543395042419,0,0.0660421405484844,0.0486375747487038,0.106727657524068,0.0743519826951006,0.0779192764066787,0.0436215080167661,,,
1.59743714332581,0,0.0661016632439689,0.0486616028739933,0.106764202626252,0.0743030770782324,0.0780009496809184,0.0436852328402082,,,
1.59943795204163,0,0.0661442656689007,0.0486808924294582,0.106790600036454,0.0742429061821587,0.0780646074491271,0.0437347866576656,,,
1.60144114494324,0,0.0661303852355939,0.048671214124109,0.106774909111847,0.0741901784169887,0.0780577231118349,0.0437246389656829,,,
1.60344099998474,0,0.0660989810346342,0.0486683083973299,0.106758927614561,0.0742134242312222,0.0780136007682801,0.0436884514914097,,,
1.60544395446777,0,0.0660497624933437,0.0486527739349334,0.106733379570649,0.0742798312639989,0.0779426116278901,0.0436286158715029,,,
1.60744404792786,0,0.0659803603268099,0.0486020801785088,0.106682551703757,0.0743171810289837,0.0778554621762588,0.0435541175072333,,,
1.60944700241089,0,0.0659685586057375,0.048582947085255,0.106675019165876,0.0743436901979077,0.0778384301469839,0.0435430533937279,,,
1.61144709587097,0,0.0660232309726752,0.0486081375012562,0.106718649771053,0.0743531226340678,0.0779037419442823,0.0436028443101459,,,
1.613450050354,0,0.0660721812930323,0.0486274270567211,0.106748310535945,0.0743098273050579,0.0779725629654602,0.0436646468835648,,,
1.61545014381409,0,0.0661156330842534,0.0486458448941523,0.106774842056613,0.0742486952839727,0.078034164373179,0.0437174864074572,,,
1.61745309829712,0,0.0661321733751504,0.0486550985163568,0.106781905207861,0.0741946934693686,0.0780658367950722,0.0437386758612008,,,
1.61945414543152,0,0.0660871346100729,0.0486355854434473,0.106745293050443,0.074180030725006,0.0780135784165357,0.0436915807356335,,,
1.62145614624023,0,0.0660288636122779,0.048616474701938,0.106711541916316,0.0742308809436418,0.077933916799297,0.0436300687348925,,,
1.62345910072327,0,0.0659608025504115,0.0485732017246725,0.106665832598905,0.0742795630430654,0.0778454932982318,0.0435516588153432,,,
1.62546014785767,0,0.0659265373261615,0.0485379977271554,0.106638339953225,0.0743042170171996,0.0777988452075535,0.0435136161462803,,,
1.62746214866638,0,0.0659785721872535,0.0485653115588798,0.106680651805479,0.074332268456491,0.0778555739349811,0.0435686684928737,,,
1.6294629573822,0,0.0660285730396,0.0485798178410313,0.106717353369874,0.0742969974037406,0.0779270548137492,0.0436221338656108,,,
1.63146495819092,0,0.066092834304909,0.0486120937600248,0.106764269681486,0.0742499693334066,0.0780174452683264,0.0436980627415255,,,
1.63346600532532,0,0.0661527369800493,0.0486577807256914,0.106810828365186,0.0742172687312685,0.0780966151471871,0.0437706612075163,,,
1.63546800613403,0,0.0660962541218107,0.0486224202659631,0.106759955794806,0.0741661949951881,0.0780388358877702,0.0437119208230878,,,
1.63746905326843,0,0.0660416935135953,0.0486054105884326,0.106721264925154,0.0741981803415037,0.0779620799973106,0.04365478976426,,,
1.63947200775146,0,0.0659906421292594,0.0485845787626003,0.106687245570093,0.0742615475370345,0.0778830665806611,0.0435901485192953,,,
1.64147210121155,0,0.0659579862306102,0.0485561249919087,0.106664782066915,0.074302518284621,0.0778364631934718,0.0435458920652738,,,
1.64347505569458,0,0.0659509677828512,0.0485348461311872,0.106658925909868,0.0743069662817676,0.0778293776904795,0.0435365043326025,,,
1.64547514915466,0,0.0659818578936884,0.0485334379712865,0.106676248511821,0.0742741762726517,0.0778737235514788,0.0435749493330657,,,
1.6474781036377,0,0.0660459626967863,0.0485670102914584,0.106719968523975,0.0742332725802985,0.0779586154769201,0.0436567343660276,,,
1.6494779586792,0,0.0661011044503575,0.0486000461697634,0.106756290108715,0.074185529254142,0.0780342537801568,0.0437227614191486,,,
1.65148115158081,0,0.0660964552875108,0.0485997555970854,0.106747349410933,0.0741387023495081,0.0780367795272803,0.0437201462650473,,,
1.65348410606384,0,0.0660369772955152,0.0485736487595616,0.106705618704035,0.0741445585065554,0.0779665950496906,0.0436549909299601,,,
1.65548396110535,0,0.0659602437568002,0.0485329238811641,0.106656444866233,0.0741914524664226,0.0778688061676986,0.0435678638300733,,,
1.65748715400696,0,0.065913796831822,0.0485000891685592,0.10662702997053,0.0742437779001925,0.0778057295448458,0.0435140631811694,,,
1.65948700904846,0,0.0659301359570189,0.0485093874942526,0.106646364229484,0.0742913647641378,0.077816883065329,0.0435314304866112,,,
1.66148996353149,0,0.0659599755358667,0.0485150424855998,0.106663485665737,0.0742805688715659,0.0778540987198471,0.0435678638300733,,,
1.66349005699158,0,0.0660443980746744,0.0485630316809454,0.106725645867067,0.0742583959410663,0.0779600459885652,0.043660534162585,,,
1.66549301147461,0,0.0660901967990633,0.0485845564108558,0.106754323155203,0.0742002814054825,0.0780270788701867,0.0437154523987117,,,
1.66749405860901,0,0.0660815466739591,0.0485703854048712,0.106738833396296,0.074127504125536,0.0780318621435001,0.0437119431748322,,,
1.66949605941772,0,0.0660432804874516,0.0485567731924979,0.106709619666293,0.0741160823841193,0.0779869351371449,0.0436698324882784,,,
1.67149710655212,0,0.0659697879516826,0.0485222620990589,0.106660244662791,0.0741537003700376,0.077892387258099,0.0435899920570841,,,
1.67350006103516,0,0.0659185130499021,0.0484930707208002,0.106629511014165,0.0742127983823774,0.077820369937464,0.043532793943023,,,
1.67550015449524,0,0.0658937920205345,0.0484697354995889,0.106614244772702,0.0742477341589611,0.0777872893556701,0.0435049213176872,,,
1.67750310897827,0,0.0659334440151982,0.0484856275898966,0.106644039648061,0.0742658390719699,0.0778324175277254,0.0435466520245852,,,
1.67950296401978,0,0.0659688491784154,0.0484901649940211,0.106661429305247,0.074219258036525,0.0778837371329948,0.0435898579466174,,,
1.68150615692139,0,0.0660294447576338,0.0485219938781254,0.106700500154555,0.0741712017859461,0.0779658574421236,0.0436611600114298,,,
1.68350601196289,0,0.0660629276708278,0.048540188198112,0.106716571058818,0.0741149424451521,0.0780147183555029,0.0437033824567059,,,
1.68550896644592,0,0.0660160337109606,0.0485109744681089,0.106673432192019,0.0740669085463176,0.0779641810612894,0.0436531580869148,,,
1.68750905990601,0,0.0659579191753768,0.0484866110666527,0.106636082427035,0.0740977316019215,0.0778911802638984,0.0435888744698613,,,
1.68951201438904,0,0.0659291301285184,0.0484844876509294,0.106630293325221,0.0741826235273628,0.077844621580198,0.0435527093473326,,,
1.69151210784912,0,0.0658835325698295,0.0484452826911548,0.106600453746373,0.0742189451121026,0.0777843612771465,0.043501032114152,,,
1.69351506233215,0,0.0658948649042684,0.0484397171067854,0.106606600476098,0.0742334737459986,0.0777935478441176,0.0435100845706564,,,
1.69551801681519,0,0.0659340922157874,0.0484473390516447,0.106627320543208,0.0742044611816956,0.0778432134202973,0.0435514352978987,,,
1.69751811027527,0,0.0659979735014407,0.0484781621072486,0.106670258244307,0.0741604505968631,0.0779297146713394,0.0436241902261007,,,
1.6995210647583,0,0.0660659675080738,0.0485224185612701,0.106722136643188,0.0741213573958108,0.0780222508933843,0.0437004096746933,,,
1.70152115821838,0,0.0660440627985076,0.0485096780669305,0.106697393262076,0.0740698366248413,0.0780030060414083,0.0436821482994733,,,
1.70352411270142,0,0.0659940172426721,0.0484900308835543,0.106662993927359,0.0740826218226697,0.0779371801539874,0.0436276770982357,,,
1.70552396774292,0,0.065920077672014,0.048451675290069,0.106615496470391,0.0741322203436161,0.0778405088592182,0.0435435227803615,,,
1.70752716064453,0,0.0658694509708227,0.048416426589063,0.106582840571742,0.0741789131377832,0.0777747723787752,0.0434876210674788,,,
1.70952796936035,0,0.0658560399241495,0.0483937395684409,0.106570234187869,0.0741969286438142,0.0777565780587886,0.043470253762037,,,
1.71152997016907,0,0.0659080747852415,0.0484151748913735,0.106608723891821,0.0741993873357042,0.0778197440886192,0.0435274965795871,,,
1.71353316307068,0,0.0659764487715302,0.0484517199935579,0.106659976441857,0.0741670667132219,0.0779066923745504,0.0436067111619367,,,
1.71553301811218,0,0.0660315011181237,0.0484822524764839,0.106695023977163,0.0741148753899187,0.0779836270789656,0.0436700783574675,,,
1.71753597259521,0,0.066040106539739,0.0484870804532862,0.106694174610874,0.0740595548223918,0.0780050400501537,0.043685568116375,,,
1.7195360660553,0,0.0660004768968197,0.0484771339270036,0.106665430267504,0.0740569843717795,0.0779564920611968,0.0436489112554683,,,
1.72153902053833,0,0.0659078736195414,0.0484225509670438,0.106597235095171,0.0740801184272907,0.0778398159551401,0.0435436792425727,,,
1.72354006767273,0,0.0658755753488034,0.0484089387546705,0.106583980510709,0.0741518898787367,0.0777900162684937,0.0435061730153767,,,
1.72554206848145,0,0.0658403713512863,0.0483738465158756,0.106559997088909,0.0741768567772933,0.0777476373610064,0.0434651799160457,,,
1.72754311561584,0,0.0658889863954766,0.0483967123504534,0.106600856077773,0.0741976438996367,0.0778030026320222,0.0435158066172369,,,
1.72954511642456,0,0.065946586840938,0.0484210086966763,0.106637937621824,0.0741660161812325,0.0778769198509359,0.0435809619523241,,,
1.73154807090759,0,0.0660088140975015,0.0484521223249581,0.106678237817077,0.0741195692562543,0.0779596213054206,0.0436518169822475,,,
1.73354816436768,0,0.0660363514466705,0.0484665615518763,0.106690955959672,0.0740626393631267,0.0780015755297632,0.0436852551919526,,,
1.73555111885071,0,0.0659799579954097,0.0484294129525915,0.10664057512767,0.0740132867113694,0.0779426339796345,0.0436289958511586,,,
1.73755216598511,0,0.0659367520733776,0.0484179688594304,0.106616323484936,0.0740510611594988,0.0778840053539283,0.0435755975336549,,,
1.73955512046814,0,0.0658956919188132,0.048403909612168,0.106598509144605,0.0741221844103556,0.0778256002456665,0.0435244567423411,,,
1.74155497550964,0,0.0658526871624812,0.0483693538152401,0.106568289586102,0.0741598247480184,0.077769117387428,0.0434789709423746,,,
1.74355816841125,0,0.0658620078399191,0.0483644140797155,0.106573765763493,0.0741768120738044,0.0777774322363654,0.0434896774279687,,,
1.74555802345276,0,0.0659254420906832,0.048393158423085,0.106619720950093,0.0741671114167108,0.07785561863847,0.0435568667718013,,,
1.74756097793579,0,0.0659787733529536,0.0484142584698508,0.106648979383585,0.0741136236922292,0.0779262277992043,0.0436165012260081,,,
1.74956107139587,0,0.0660351668042143,0.048447204941178,0.106688631378249,0.0740675343951624,0.0780035201315308,0.0436823494651734,,,
1.75156402587891,0,0.0660136420743039,0.0484340621154382,0.106667352517528,0.0740159465689595,0.0779898408639241,0.0436620987846969,,,
1.75356411933899,0,0.0659504760444732,0.0484057424552134,0.106620704426849,0.0740231885341631,0.0779122579589198,0.0435940377228305,,,
1.75556707382202,0,0.0658779893372046,0.0483684597454619,0.106571150609392,0.0740758492440998,0.0778174195071959,0.0435131467596467,,,
1.7575671672821,0,0.0658470545228785,0.0483490360795302,0.10655689019643,0.0741343214075949,0.0777751747101754,0.0434791497563302,,,
1.75957012176514,0,0.0658476133164898,0.0483430905155051,0.106562969870921,0.0741653903323877,0.0777707490647732,0.0434797979569194,,,
1.76156997680664,0,0.0658602420521071,0.0483286289368426,0.106565585025023,0.0741381435558967,0.077791849111539,0.0434964500065386,,,
1.76357316970825,0,0.0659355897826659,0.0483666045506721,0.10661699403727,0.0741054876572475,0.0778861734731404,0.0435800008273126,,,
1.76557302474976,0,0.0659921173443934,0.0483997521876993,0.106654612023188,0.0740550621217563,0.0779631975845334,0.0436460949356669,,,
1.76757597923279,0,0.065997839390974,0.0484028367284342,0.106653337973754,0.073997953414673,0.077982174215576,0.0436580084154616,,,
1.7695779800415,0,0.0659375120326891,0.0483701137745516,0.106606175792953,0.0739790438388638,0.0779135096566093,0.043596809339143,,,
1.77157998085022,0,0.0658847619157746,0.0483529476348099,0.106577185580395,0.0740356384558247,0.0778415593912076,0.0435365490360915,,,
1.77358102798462,0,0.065850764912458,0.048338910739292,0.106563595719766,0.0741087286601935,0.0777863058789141,0.0434963829513053,,,
1.77558398246765,0,0.0658243898540008,0.0483120215907123,0.106543523853245,0.0741370483204184,0.0777499395906853,0.0434644870119675,,,
1.77758407592773,0,0.065853558880515,0.0483188388727711,0.106564154513377,0.0741405798960423,0.0777862835271697,0.0434972993728279,,,
